*RAS_DATA_START
*RAS_HEADER_START
*DISP_FMT_X "%.2f"
*DISP_FMT_Y "%.0f"
*DISP_FULLSCALE "73239.0000000000"
*DISP_LINE_COLOR "255.0000000000"
*DISP_LINE_STYLE "0.0000000000"
*DISP_LINE_WIDTH "0.2500000000"
*DISP_NOTE "測定データ-1"
*DISP_OFFSET_Y "0.0000000000"
*DISP_PEAKSEARCH_UNIT_Y "cps"
*DISP_RANGE_BOTTOM "0.0000000000"
*DISP_RANGE_LEFT "20.0000000000"
*DISP_RANGE_LOGCUTOFF "0.0100000000"
*DISP_RANGE_RIGHT "90.0000000000"
*DISP_RANGE_TOP "73239.0000000000"
*DISP_SCALE_MODE_Y "0.0000000000"
*DISP_TAB_NAME "2θ/θ"
*DISP_TITLE_Y "強度"
*DISP_UNIT_Y "cps"
*DISP_WINDOW_NAME "MSG_MACROENGINE"
*FILE_COMMENT " "
*FILE_MD5 ""
*FILE_MEMO " "
*FILE_OPERATOR "Administrator"
*FILE_SAMPLE " "
*FILE_TYPE "RAS_RAW"
*FILE_USERGROUP "システムマネージャ"
*FILE_VERSION "1.0000000000"
*HW_ATTACHMENT_ID "ATT0025"
*HW_ATTACHMENT_NAME "標準|Standard"
*HW_COUNTER_ID-0 "CUT0025"
*HW_COUNTER_ID-1 "CUT0020"
*HW_COUNTER_ID-2 "CUT0020"
*HW_COUNTER_ID-3 "CSL0021"
*HW_COUNTER_ID-4 "CMC0021"
*HW_COUNTER_NAME-0 "D/teX Ultra|D/teX Ultra"
*HW_COUNTER_NAME-1 "None|None"
*HW_COUNTER_NAME-2 "None|None"
*HW_COUNTER_NAME-3 "BBM|BBM"
*HW_COUNTER_NAME-4 "検出器モノクロメータ|Detector monochromator"
*HW_COUNTER_SELECT_NAME "D/teX Ultra|D/teX Ultra"
*HW_GONIOMETER_ID "GON0023"
*HW_GONIOMETER_NAME "SmartLab|SmartLab"
*HW_GONIOMETER_RADIUS-0 "90.0"
*HW_GONIOMETER_RADIUS-1 "114.0"
*HW_GONIOMETER_RADIUS-2 "190.0"
*HW_GONIOMETER_RADIUS-3 "300.0"
*HW_GONIOMETER_RADIUS-4 "187.0"
*HW_GONIOMETER_RADIUS-5 "300.0"
*HW_GONIOMETER_RADIUS-6 "113.0"
*HW_GONIOMETER_RADIUS-7 "331.0"
*HW_I_OPT_ID-0 "CBO0021"
*HW_I_OPT_ID-1 "ICR0023"
*HW_I_OPT_ID-2 "ISL0021"
*HW_I_OPT_ID-3 "ISO0021"
*HW_I_OPT_ID-4 "IAD0021"
*HW_I_OPT_ID-5 "IPR0001"
*HW_I_OPT_NAME-0 "CBOユニット|CBO unit"
*HW_I_OPT_NAME-1 "標準入射光学ユニット|Standard incident optical unit"
*HW_I_OPT_NAME-2 "標準入射スリットボックス|Standard incident slit box"
*HW_I_OPT_NAME-3 "入射平行スリット|Incident parallel slit"
*HW_I_OPT_NAME-4 "長手制限スリット|Length limiting slit"
*HW_I_OPT_NAME-5 "None|None"
*HW_R_ATTENUATER_AUTOMODE "0"
*HW_R_OPT_ID-0 "RSS0021"
*HW_R_OPT_ID-1 "RCR0023"
*HW_R_OPT_ID-2 "RSO0021"
*HW_R_OPT_ID-3 "RRS0021"
*HW_R_OPT_ID-4 "ATN0021"
*HW_R_OPT_ID-5 "RFL0021"
*HW_R_OPT_ID-6 "RAD0021"
*HW_R_OPT_NAME-0 "標準受光スリットボックス1|Standard receiving slit box # 1"
*HW_R_OPT_NAME-1 "標準受光光学ユニット1|Standard receiving unit # 1"
*HW_R_OPT_NAME-2 "標準受光光学ユニット2|Standard receiving optical unit # 2"
*HW_R_OPT_NAME-3 "標準受光スリットボックス2|Standard receiving slit box # 2"
*HW_R_OPT_NAME-4 "標準アッテネータ|Standard Attenuator"
*HW_R_OPT_NAME-5 "Cu Kβ|Cu K-beta"
*HW_R_OPT_NAME-6 "調整用受光スリット|Alignment receiving slit"
*HW_SAMPLE_HOLDER_ID "SMP0023"
*HW_SAMPLE_HOLDER_NAME "標準Zステージ|Standard Z stage"
*HW_XG_CURRENT_MAX "50"
*HW_XG_CURRENT_MIN "2"
*HW_XG_CURRENT_RESOLUTION "2"
*HW_XG_CURRENT_UNIT "mA"
*HW_XG_FOCUS "1mm x 10mm"
*HW_XG_FOCUS_TYPE "Normal"
*HW_XG_ID ""
*HW_XG_NAME "3kW 封入管(ID:1200)|3kW Sealed tube(ID:1200)"
*HW_XG_TARGET_ATOMIC_NUMBER "29.0000000000"
*HW_XG_TARGET_NAME "Cu"
*HW_XG_TYPE "Hermetic"
*HW_XG_VOLTAGE_MAX "60"
*HW_XG_VOLTAGE_MIN "20"
*HW_XG_VOLTAGE_RESOLUTION "2"
*HW_XG_VOLTAGE_UNIT "kV"
*HW_XG_WATT_MAX "2"
*HW_XG_WATT_UNIT "kW"
*HW_XG_WAVE_LENGTH_ALPHA1 "1.540593"
*HW_XG_WAVE_LENGTH_ALPHA2 "1.544414"
*HW_XG_WAVE_LENGTH_BETA "1.392250"
*MEAS_COND_AXIS_NAME-0 "2θ/θ"
*MEAS_COND_AXIS_NAME-1 "2θ"
*MEAS_COND_AXIS_NAME-2 "ω"
*MEAS_COND_AXIS_NAME-3 "Z"
*MEAS_COND_AXIS_NAME-4 "2θ/ω"
*MEAS_COND_AXIS_NAME-5 "θs"
*MEAS_COND_AXIS_NAME-6 "θd"
*MEAS_COND_AXIS_NAME-7 "Ts"
*MEAS_COND_AXIS_NAME-8 "CBO選択スリット"
*MEAS_COND_AXIS_NAME-9 "M"
*MEAS_COND_AXIS_NAME-10 "入射平行スリット"
*MEAS_COND_AXIS_NAME-11 "入射スリット"
*MEAS_COND_AXIS_NAME-12 ""
*MEAS_COND_AXIS_NAME-13 "Zs"
*MEAS_COND_AXIS_NAME-14 "入射光学素子"
*MEAS_COND_AXIS_NAME-15 "長手制限スリット"
*MEAS_COND_AXIS_NAME-16 "センタースリット"
*MEAS_COND_AXIS_NAME-17 "フィルター"
*MEAS_COND_AXIS_NAME-18 "受光スリット1"
*MEAS_COND_AXIS_NAME-19 "受光スリット2"
*MEAS_COND_AXIS_NAME-20 "受光光学素子"
*MEAS_COND_AXIS_NAME-21 "受光平行スリット"
*MEAS_COND_AXIS_NAME-22 "調整用受光スリット"
*MEAS_COND_AXIS_NAME-23 ""
*MEAS_COND_AXIS_NAME-24 ""
*MEAS_COND_AXIS_NAME-25 "Zd"
*MEAS_COND_AXIS_NAME-26 "アッテネータ"
*MEAS_COND_AXIS_NAME-27 "検出器モノクロメータ"
*MEAS_COND_AXIS_NAME-28 "モノクロメータスリット"
*MEAS_COND_AXIS_NAME-29 "プライマリビーム"
*MEAS_COND_AXIS_NAME-30 "PHA"
*MEAS_COND_AXIS_NAME_INTERNAL-0 "TwoThetaTheta"
*MEAS_COND_AXIS_NAME_INTERNAL-1 "TwoTheta"
*MEAS_COND_AXIS_NAME_INTERNAL-2 "Omega"
*MEAS_COND_AXIS_NAME_INTERNAL-3 "Z"
*MEAS_COND_AXIS_NAME_INTERNAL-4 "TwoThetaOmega"
*MEAS_COND_AXIS_NAME_INTERNAL-5 "ThetaS"
*MEAS_COND_AXIS_NAME_INTERNAL-6 "ThetaD"
*MEAS_COND_AXIS_NAME_INTERNAL-7 "Ts"
*MEAS_COND_AXIS_NAME_INTERNAL-8 "CBO"
*MEAS_COND_AXIS_NAME_INTERNAL-9 "CBO-M"
*MEAS_COND_AXIS_NAME_INTERNAL-10 "IncidentSollerSlit"
*MEAS_COND_AXIS_NAME_INTERNAL-11 "IncidentSlitBox"
*MEAS_COND_AXIS_NAME_INTERNAL-12 "IncidentSlitBox-_Axis"
*MEAS_COND_AXIS_NAME_INTERNAL-13 "Zs"
*MEAS_COND_AXIS_NAME_INTERNAL-14 "IncidentMonochromator"
*MEAS_COND_AXIS_NAME_INTERNAL-15 "IncidentAxdSlit"
*MEAS_COND_AXIS_NAME_INTERNAL-16 "CenterSlit"
*MEAS_COND_AXIS_NAME_INTERNAL-17 "Filter"
*MEAS_COND_AXIS_NAME_INTERNAL-18 "ReceivingSlitBox1"
*MEAS_COND_AXIS_NAME_INTERNAL-19 "ReceivingSlitBox2"
*MEAS_COND_AXIS_NAME_INTERNAL-20 "ReceivingOptics"
*MEAS_COND_AXIS_NAME_INTERNAL-21 "ReceivingSollerSlit"
*MEAS_COND_AXIS_NAME_INTERNAL-22 "ReceivingAxdSlit"
*MEAS_COND_AXIS_NAME_INTERNAL-23 "ReceivingSlitBox1-_Axis"
*MEAS_COND_AXIS_NAME_INTERNAL-24 "ReceivingSlitBox2-_Axis"
*MEAS_COND_AXIS_NAME_INTERNAL-25 "ReceivingSlitBox2-Zd"
*MEAS_COND_AXIS_NAME_INTERNAL-26 "Attenuator"
*MEAS_COND_AXIS_NAME_INTERNAL-27 "CounterMonochromator"
*MEAS_COND_AXIS_NAME_INTERNAL-28 "CounterSlit"
*MEAS_COND_AXIS_NAME_INTERNAL-29 "IncidentPrimary"
*MEAS_COND_AXIS_NAME_INTERNAL-30 "PHA"
*MEAS_COND_AXIS_NAME_MAGICNO-0 "83951616.0000000000"
*MEAS_COND_AXIS_NAME_MAGICNO-1 "268632064.0000000000"
*MEAS_COND_AXIS_NAME_MAGICNO-2 "268500992.0000000000"
*MEAS_COND_AXIS_NAME_MAGICNO-3 "285278208.0000000000"
*MEAS_COND_AXIS_NAME_MAGICNO-4 "83951616.0000000000"
*MEAS_COND_AXIS_NAME_MAGICNO-5 "131072.0000000000"
*MEAS_COND_AXIS_NAME_MAGICNO-6 "131072.0000000000"
*MEAS_COND_AXIS_NAME_MAGICNO-7 "318898176.0000000000"
*MEAS_COND_AXIS_NAME_MAGICNO-8 "20971521.0000000000"
*MEAS_COND_AXIS_NAME_MAGICNO-9 "285343744.0000000000"
*MEAS_COND_AXIS_NAME_MAGICNO-10 "20971521.0000000000"
*MEAS_COND_AXIS_NAME_MAGICNO-11 "22020097.0000000000"
*MEAS_COND_AXIS_NAME_MAGICNO-12 "25165824.0000000000"
*MEAS_COND_AXIS_NAME_MAGICNO-13 "318898176.0000000000"
*MEAS_COND_AXIS_NAME_MAGICNO-14 "1.0000000000"
*MEAS_COND_AXIS_NAME_MAGICNO-15 "20971521.0000000000"
*MEAS_COND_AXIS_NAME_MAGICNO-16 "20971521.0000000000"
*MEAS_COND_AXIS_NAME_MAGICNO-17 "20971521.0000000000"
*MEAS_COND_AXIS_NAME_MAGICNO-18 "23068673.0000000000"
*MEAS_COND_AXIS_NAME_MAGICNO-19 "23068673.0000000000"
*MEAS_COND_AXIS_NAME_MAGICNO-20 "20971521.0000000000"
*MEAS_COND_AXIS_NAME_MAGICNO-21 "20971521.0000000000"
*MEAS_COND_AXIS_NAME_MAGICNO-22 "20971521.0000000000"
*MEAS_COND_AXIS_NAME_MAGICNO-23 "25165824.0000000000"
*MEAS_COND_AXIS_NAME_MAGICNO-24 "25165824.0000000000"
*MEAS_COND_AXIS_NAME_MAGICNO-25 "285343744.0000000000"
*MEAS_COND_AXIS_NAME_MAGICNO-26 "17301505.0000000000"
*MEAS_COND_AXIS_NAME_MAGICNO-27 "20971521.0000000000"
*MEAS_COND_AXIS_NAME_MAGICNO-28 "20971521.0000000000"
*MEAS_COND_AXIS_NAME_MAGICNO-29 "20971521.0000000000"
*MEAS_COND_AXIS_NAME_MAGICNO-30 "0.0000000000"
*MEAS_COND_AXIS_OFFSET-0 "-"
*MEAS_COND_AXIS_OFFSET-1 "-0.1081000000"
*MEAS_COND_AXIS_OFFSET-2 "0.3758000000"
*MEAS_COND_AXIS_OFFSET-3 "-"
*MEAS_COND_AXIS_OFFSET-4 "-"
*MEAS_COND_AXIS_OFFSET-5 "0.3758000000"
*MEAS_COND_AXIS_OFFSET-6 "-0.4839000000"
*MEAS_COND_AXIS_OFFSET-7 "-"
*MEAS_COND_AXIS_OFFSET-8 "-"
*MEAS_COND_AXIS_OFFSET-9 "-"
*MEAS_COND_AXIS_OFFSET-10 "-"
*MEAS_COND_AXIS_OFFSET-11 "-"
*MEAS_COND_AXIS_OFFSET-12 "-"
*MEAS_COND_AXIS_OFFSET-13 "-"
*MEAS_COND_AXIS_OFFSET-14 "-"
*MEAS_COND_AXIS_OFFSET-15 "-"
*MEAS_COND_AXIS_OFFSET-16 "-"
*MEAS_COND_AXIS_OFFSET-17 "-"
*MEAS_COND_AXIS_OFFSET-18 "-"
*MEAS_COND_AXIS_OFFSET-19 "-"
*MEAS_COND_AXIS_OFFSET-20 "-"
*MEAS_COND_AXIS_OFFSET-21 "-"
*MEAS_COND_AXIS_OFFSET-22 "-"
*MEAS_COND_AXIS_OFFSET-23 "-"
*MEAS_COND_AXIS_OFFSET-24 "-"
*MEAS_COND_AXIS_OFFSET-25 "-"
*MEAS_COND_AXIS_OFFSET-26 "-"
*MEAS_COND_AXIS_OFFSET-27 "-"
*MEAS_COND_AXIS_OFFSET-28 "-"
*MEAS_COND_AXIS_OFFSET-29 "-"
*MEAS_COND_AXIS_OFFSET-30 "-"
*MEAS_COND_AXIS_POSITION-0 "0.0000000000"
*MEAS_COND_AXIS_POSITION-1 "0.0000000000"
*MEAS_COND_AXIS_POSITION-2 "0.0000000000"
*MEAS_COND_AXIS_POSITION-3 "-0.5500000000"
*MEAS_COND_AXIS_POSITION-4 "0.0000000000"
*MEAS_COND_AXIS_POSITION-5 "0.0000000000"
*MEAS_COND_AXIS_POSITION-6 "0.0000000000"
*MEAS_COND_AXIS_POSITION-7 "-0.4278800000"
*MEAS_COND_AXIS_POSITION-8 "BB"
*MEAS_COND_AXIS_POSITION-9 "0.0000000000"
*MEAS_COND_AXIS_POSITION-10 "Soller_slit_5.0deg"
*MEAS_COND_AXIS_POSITION-11 "2/3deg"
*MEAS_COND_AXIS_POSITION-12 "2.2088000000"
*MEAS_COND_AXIS_POSITION-13 "-0.4140600000"
*MEAS_COND_AXIS_POSITION-14 "0.0000000000"
*MEAS_COND_AXIS_POSITION-15 "10.0mm"
*MEAS_COND_AXIS_POSITION-16 "None"
*MEAS_COND_AXIS_POSITION-17 "Cu_K-beta"
*MEAS_COND_AXIS_POSITION-18 "13.000mm"
*MEAS_COND_AXIS_POSITION-19 "13.000mm"
*MEAS_COND_AXIS_POSITION-20 "No_unit"
*MEAS_COND_AXIS_POSITION-21 "Soller_slit_5.0deg"
*MEAS_COND_AXIS_POSITION-22 "None"
*MEAS_COND_AXIS_POSITION-23 "13.0000000000"
*MEAS_COND_AXIS_POSITION-24 "13.0000000000"
*MEAS_COND_AXIS_POSITION-25 "0.0109400000"
*MEAS_COND_AXIS_POSITION-26 "Open"
*MEAS_COND_AXIS_POSITION-27 "None"
*MEAS_COND_AXIS_POSITION-28 "None"
*MEAS_COND_AXIS_POSITION-29 "None"
*MEAS_COND_AXIS_POSITION-30 "38.0000000000"
*MEAS_COND_AXIS_UNIT-0 "deg"
*MEAS_COND_AXIS_UNIT-1 "deg"
*MEAS_COND_AXIS_UNIT-2 "deg"
*MEAS_COND_AXIS_UNIT-3 "mm"
*MEAS_COND_AXIS_UNIT-4 "deg"
*MEAS_COND_AXIS_UNIT-5 "deg"
*MEAS_COND_AXIS_UNIT-6 "deg"
*MEAS_COND_AXIS_UNIT-7 "mm"
*MEAS_COND_AXIS_UNIT-8 ""
*MEAS_COND_AXIS_UNIT-9 "pulse"
*MEAS_COND_AXIS_UNIT-10 ""
*MEAS_COND_AXIS_UNIT-11 ""
*MEAS_COND_AXIS_UNIT-12 "mm"
*MEAS_COND_AXIS_UNIT-13 "mm"
*MEAS_COND_AXIS_UNIT-14 ""
*MEAS_COND_AXIS_UNIT-15 ""
*MEAS_COND_AXIS_UNIT-16 ""
*MEAS_COND_AXIS_UNIT-17 ""
*MEAS_COND_AXIS_UNIT-18 ""
*MEAS_COND_AXIS_UNIT-19 ""
*MEAS_COND_AXIS_UNIT-20 ""
*MEAS_COND_AXIS_UNIT-21 ""
*MEAS_COND_AXIS_UNIT-22 ""
*MEAS_COND_AXIS_UNIT-23 "mm"
*MEAS_COND_AXIS_UNIT-24 "mm"
*MEAS_COND_AXIS_UNIT-25 "mm"
*MEAS_COND_AXIS_UNIT-26 ""
*MEAS_COND_AXIS_UNIT-27 ""
*MEAS_COND_AXIS_UNIT-28 ""
*MEAS_COND_AXIS_UNIT-29 ""
*MEAS_COND_AXIS_UNIT-30 "div"
*MEAS_COND_COUNTER_CNTLOSS_CORR "0.0000000000"
*MEAS_COND_COUNTER_PHABASE "38.0000000000"
*MEAS_COND_COUNTER_PHAWINDOW "16.0000000000"
*MEAS_COND_COUNTER_PHA_UNIT "div"
*MEAS_COND_COUNTER_TAUDIFF "30.0000000000"
*MEAS_COND_COUNTER_TAUINT "0.0000000000"
*MEAS_COND_IRRADIATION_MODE "OFF"
*MEAS_COND_IRRADIATION_WIDTH ""
*MEAS_COND_OPT_ATTR "集中法"
*MEAS_COND_OPT_NAME "@集中法"
*MEAS_COND_UNSYMMETRIC_MODE "OFF"
*MEAS_COND_XG_CURRENT "30.0000000000"
*MEAS_COND_XG_VOLTAGE "40.0000000000"
*MEAS_COND_XG_WAVE_TYPE "Ka"
*MEAS_DATA_COUNT "3501.0000000000"
*MEAS_SCAN_AXIS_X "2θ/θ"
*MEAS_SCAN_AXIS_X_INTERNAL "TwoThetaTheta"
*MEAS_SCAN_END_TIME "09/18/20 13:44:55"
*MEAS_SCAN_MODE "CONTINUOUS"
*MEAS_SCAN_MONITOR "0"
*MEAS_SCAN_RESOLUTION_X "0.0002"
*MEAS_SCAN_SPEED "1.0"
*MEAS_SCAN_SPEED_UNIT "deg/min"
*MEAS_SCAN_START "20.0000000000"
*MEAS_SCAN_START_TIME "09/18/20 12:32:02"
*MEAS_SCAN_STEP "0.0200000000"
*MEAS_SCAN_STOP "90.0000000000"
*MEAS_SCAN_UNIT_X "deg"
*MEAS_SCAN_UNIT_Y "counts"
*RAS_HEADER_END
*RAS_INT_START
20.0000 10367.0000 1.0000
20.0200 10521.0000 1.0000
20.0400 10594.0000 1.0000
20.0600 10639.0000 1.0000
20.0800 10551.0000 1.0000
20.1000 10638.0000 1.0000
20.1200 10556.0000 1.0000
20.1400 10660.0000 1.0000
20.1600 10617.0000 1.0000
20.1800 10572.0000 1.0000
20.2000 10612.0000 1.0000
20.2200 10559.0000 1.0000
20.2400 10642.0000 1.0000
20.2600 10505.0000 1.0000
20.2800 10570.0000 1.0000
20.3000 10511.0000 1.0000
20.3200 10527.0000 1.0000
20.3400 10590.0000 1.0000
20.3600 10650.0000 1.0000
20.3800 10668.0000 1.0000
20.4000 10328.0000 1.0000
20.4200 10510.0000 1.0000
20.4400 10508.0000 1.0000
20.4600 10477.0000 1.0000
20.4800 10603.0000 1.0000
20.5000 10557.0000 1.0000
20.5200 10591.0000 1.0000
20.5400 10593.0000 1.0000
20.5600 10921.0000 1.0000
20.5800 10810.0000 1.0000
20.6000 10786.0000 1.0000
20.6200 10760.0000 1.0000
20.6400 10963.0000 1.0000
20.6600 11140.0000 1.0000
20.6800 11357.0000 1.0000
20.7000 12021.0000 1.0000
20.7200 12167.0000 1.0000
20.7400 12800.0000 1.0000
20.7600 14031.0000 1.0000
20.7800 13553.0000 1.0000
20.8000 13821.0000 1.0000
20.8200 15007.0000 1.0000
20.8400 16081.0000 1.0000
20.8600 17802.0000 1.0000
20.8800 18394.0000 1.0000
20.9000 17027.0000 1.0000
20.9200 15159.0000 1.0000
20.9400 14115.0000 1.0000
20.9600 12407.0000 1.0000
20.9800 11109.0000 1.0000
21.0000 10718.0000 1.0000
21.0200 10937.0000 1.0000
21.0400 10583.0000 1.0000
21.0600 10629.0000 1.0000
21.0800 10597.0000 1.0000
21.1000 10404.0000 1.0000
21.1200 10306.0000 1.0000
21.1400 10489.0000 1.0000
21.1600 10296.0000 1.0000
21.1800 10140.0000 1.0000
21.2000 10405.0000 1.0000
21.2200 10371.0000 1.0000
21.2400 10169.0000 1.0000
21.2600 10265.0000 1.0000
21.2800 10269.0000 1.0000
21.3000 10190.0000 1.0000
21.3200 10233.0000 1.0000
21.3400 10200.0000 1.0000
21.3600 10172.0000 1.0000
21.3800 10100.0000 1.0000
21.4000 10335.0000 1.0000
21.4200 10140.0000 1.0000
21.4400 10071.0000 1.0000
21.4600 10243.0000 1.0000
21.4800 10162.0000 1.0000
21.5000 10082.0000 1.0000
21.5200 10198.0000 1.0000
21.5400 10202.0000 1.0000
21.5600 10146.0000 1.0000
21.5800 10128.0000 1.0000
21.6000 10113.0000 1.0000
21.6200 10036.0000 1.0000
21.6400 10145.0000 1.0000
21.6600 9876.0000 1.0000
21.6800 9984.0000 1.0000
21.7000 9922.0000 1.0000
21.7200 10101.0000 1.0000
21.7400 9940.0000 1.0000
21.7600 9982.0000 1.0000
21.7800 9966.0000 1.0000
21.8000 10016.0000 1.0000
21.8200 9955.0000 1.0000
21.8400 9996.0000 1.0000
21.8600 9903.0000 1.0000
21.8800 9943.0000 1.0000
21.9000 10023.0000 1.0000
21.9200 9869.0000 1.0000
21.9400 10035.0000 1.0000
21.9600 9980.0000 1.0000
21.9800 9710.0000 1.0000
22.0000 9804.0000 1.0000
22.0200 9628.0000 1.0000
22.0400 9893.0000 1.0000
22.0600 9670.0000 1.0000
22.0800 9692.0000 1.0000
22.1000 9863.0000 1.0000
22.1200 9754.0000 1.0000
22.1400 9815.0000 1.0000
22.1600 9814.0000 1.0000
22.1800 9542.0000 1.0000
22.2000 9964.0000 1.0000
22.2200 9726.0000 1.0000
22.2400 9840.0000 1.0000
22.2600 9882.0000 1.0000
22.2800 9735.0000 1.0000
22.3000 9611.0000 1.0000
22.3200 9659.0000 1.0000
22.3400 9702.0000 1.0000
22.3600 9633.0000 1.0000
22.3800 9710.0000 1.0000
22.4000 9666.0000 1.0000
22.4200 9579.0000 1.0000
22.4400 9817.0000 1.0000
22.4600 9703.0000 1.0000
22.4800 9655.0000 1.0000
22.5000 9790.0000 1.0000
22.5200 9564.0000 1.0000
22.5400 9516.0000 1.0000
22.5600 9625.0000 1.0000
22.5800 9721.0000 1.0000
22.6000 9611.0000 1.0000
22.6200 9544.0000 1.0000
22.6400 9413.0000 1.0000
22.6600 9570.0000 1.0000
22.6800 9488.0000 1.0000
22.7000 9585.0000 1.0000
22.7200 9524.0000 1.0000
22.7400 9505.0000 1.0000
22.7600 9568.0000 1.0000
22.7800 9480.0000 1.0000
22.8000 9561.0000 1.0000
22.8200 9449.0000 1.0000
22.8400 9499.0000 1.0000
22.8600 9492.0000 1.0000
22.8800 9516.0000 1.0000
22.9000 9535.0000 1.0000
22.9200 9426.0000 1.0000
22.9400 9562.0000 1.0000
22.9600 9413.0000 1.0000
22.9800 9390.0000 1.0000
23.0000 9481.0000 1.0000
23.0200 9395.0000 1.0000
23.0400 9397.0000 1.0000
23.0600 9360.0000 1.0000
23.0800 9358.0000 1.0000
23.1000 9368.0000 1.0000
23.1200 9421.0000 1.0000
23.1400 9290.0000 1.0000
23.1600 9342.0000 1.0000
23.1800 9516.0000 1.0000
23.2000 9259.0000 1.0000
23.2200 9305.0000 1.0000
23.2400 9425.0000 1.0000
23.2600 9286.0000 1.0000
23.2800 9180.0000 1.0000
23.3000 9398.0000 1.0000
23.3200 9219.0000 1.0000
23.3400 9371.0000 1.0000
23.3600 9280.0000 1.0000
23.3800 9283.0000 1.0000
23.4000 9447.0000 1.0000
23.4200 9454.0000 1.0000
23.4400 9232.0000 1.0000
23.4600 9392.0000 1.0000
23.4800 9204.0000 1.0000
23.5000 9227.0000 1.0000
23.5200 9296.0000 1.0000
23.5400 9187.0000 1.0000
23.5600 9200.0000 1.0000
23.5800 9374.0000 1.0000
23.6000 9395.0000 1.0000
23.6200 9254.0000 1.0000
23.6400 9421.0000 1.0000
23.6600 9170.0000 1.0000
23.6800 9152.0000 1.0000
23.7000 9268.0000 1.0000
23.7200 9313.0000 1.0000
23.7400 9355.0000 1.0000
23.7600 9412.0000 1.0000
23.7800 9196.0000 1.0000
23.8000 9253.0000 1.0000
23.8200 9281.0000 1.0000
23.8400 9151.0000 1.0000
23.8600 9551.0000 1.0000
23.8800 9435.0000 1.0000
23.9000 9340.0000 1.0000
23.9200 9558.0000 1.0000
23.9400 9632.0000 1.0000
23.9600 9691.0000 1.0000
23.9800 9762.0000 1.0000
24.0000 10099.0000 1.0000
24.0200 10027.0000 1.0000
24.0400 10406.0000 1.0000
24.0600 10692.0000 1.0000
24.0800 10721.0000 1.0000
24.1000 10941.0000 1.0000
24.1200 11465.0000 1.0000
24.1400 12057.0000 1.0000
24.1600 12538.0000 1.0000
24.1800 12411.0000 1.0000
24.2000 11915.0000 1.0000
24.2200 11549.0000 1.0000
24.2400 11091.0000 1.0000
24.2600 10520.0000 1.0000
24.2800 9907.0000 1.0000
24.3000 9797.0000 1.0000
24.3200 9698.0000 1.0000
24.3400 9494.0000 1.0000
24.3600 9447.0000 1.0000
24.3800 9452.0000 1.0000
24.4000 9369.0000 1.0000
24.4200 9453.0000 1.0000
24.4400 9283.0000 1.0000
24.4600 9303.0000 1.0000
24.4800 9329.0000 1.0000
24.5000 9209.0000 1.0000
24.5200 9342.0000 1.0000
24.5400 9194.0000 1.0000
24.5600 9095.0000 1.0000
24.5800 9232.0000 1.0000
24.6000 9083.0000 1.0000
24.6200 9100.0000 1.0000
24.6400 9244.0000 1.0000
24.6600 9280.0000 1.0000
24.6800 9192.0000 1.0000
24.7000 9135.0000 1.0000
24.7200 9042.0000 1.0000
24.7400 9105.0000 1.0000
24.7600 9253.0000 1.0000
24.7800 9327.0000 1.0000
24.8000 9234.0000 1.0000
24.8200 9271.0000 1.0000
24.8400 9145.0000 1.0000
24.8600 9104.0000 1.0000
24.8800 9069.0000 1.0000
24.9000 9146.0000 1.0000
24.9200 9210.0000 1.0000
24.9400 9258.0000 1.0000
24.9600 9075.0000 1.0000
24.9800 9063.0000 1.0000
25.0000 9130.0000 1.0000
25.0200 9283.0000 1.0000
25.0400 9068.0000 1.0000
25.0600 9282.0000 1.0000
25.0800 9361.0000 1.0000
25.1000 9284.0000 1.0000
25.1200 9262.0000 1.0000
25.1400 9311.0000 1.0000
25.1600 9266.0000 1.0000
25.1800 9247.0000 1.0000
25.2000 9324.0000 1.0000
25.2200 9198.0000 1.0000
25.2400 9330.0000 1.0000
25.2600 9426.0000 1.0000
25.2800 9380.0000 1.0000
25.3000 9363.0000 1.0000
25.3200 9506.0000 1.0000
25.3400 9448.0000 1.0000
25.3600 9703.0000 1.0000
25.3800 9725.0000 1.0000
25.4000 9844.0000 1.0000
25.4200 9856.0000 1.0000
25.4400 10155.0000 1.0000
25.4600 10441.0000 1.0000
25.4800 10590.0000 1.0000
25.5000 11038.0000 1.0000
25.5200 11424.0000 1.0000
25.5400 12134.0000 1.0000
25.5600 13034.0000 1.0000
25.5800 13387.0000 1.0000
25.6000 13354.0000 1.0000
25.6200 12755.0000 1.0000
25.6400 12075.0000 1.0000
25.6600 11672.0000 1.0000
25.6800 11122.0000 1.0000
25.7000 10449.0000 1.0000
25.7200 10046.0000 1.0000
25.7400 9945.0000 1.0000
25.7600 9782.0000 1.0000
25.7800 9685.0000 1.0000
25.8000 9632.0000 1.0000
25.8200 9656.0000 1.0000
25.8400 9400.0000 1.0000
25.8600 9531.0000 1.0000
25.8800 9464.0000 1.0000
25.9000 9271.0000 1.0000
25.9200 9347.0000 1.0000
25.9400 9335.0000 1.0000
25.9600 9511.0000 1.0000
25.9800 9452.0000 1.0000
26.0000 9373.0000 1.0000
26.0200 9461.0000 1.0000
26.0400 9223.0000 1.0000
26.0600 9305.0000 1.0000
26.0800 9238.0000 1.0000
26.1000 9496.0000 1.0000
26.1200 9295.0000 1.0000
26.1400 9130.0000 1.0000
26.1600 9246.0000 1.0000
26.1800 9448.0000 1.0000
26.2000 9323.0000 1.0000
26.2200 9407.0000 1.0000
26.2400 9176.0000 1.0000
26.2600 9406.0000 1.0000
26.2800 9380.0000 1.0000
26.3000 9593.0000 1.0000
26.3200 9568.0000 1.0000
26.3400 10039.0000 1.0000
26.3600 10398.0000 1.0000
26.3800 10224.0000 1.0000
26.4000 10723.0000 1.0000
26.4200 11117.0000 1.0000
26.4400 11913.0000 1.0000
26.4600 12503.0000 1.0000
26.4800 13017.0000 1.0000
26.5000 13908.0000 1.0000
26.5200 15201.0000 1.0000
26.5400 17375.0000 1.0000
26.5600 20488.0000 1.0000
26.5800 24939.0000 1.0000
26.6000 29877.0000 1.0000
26.6200 40902.0000 1.0000
26.6400 58261.0000 1.0000
26.6600 73239.0000 1.0000
26.6800 57205.0000 1.0000
26.7000 40732.0000 1.0000
26.7200 41243.0000 1.0000
26.7400 35722.0000 1.0000
26.7600 21588.0000 1.0000
26.7800 14695.0000 1.0000
26.8000 12301.0000 1.0000
26.8200 11423.0000 1.0000
26.8400 11110.0000 1.0000
26.8600 10524.0000 1.0000
26.8800 9953.0000 1.0000
26.9000 9718.0000 1.0000
26.9200 9646.0000 1.0000
26.9400 9588.0000 1.0000
26.9600 9203.0000 1.0000
26.9800 9322.0000 1.0000
27.0000 9215.0000 1.0000
27.0200 9053.0000 1.0000
27.0400 9177.0000 1.0000
27.0600 9292.0000 1.0000
27.0800 9251.0000 1.0000
27.1000 9176.0000 1.0000
27.1200 9176.0000 1.0000
27.1400 9109.0000 1.0000
27.1600 9013.0000 1.0000
27.1800 9045.0000 1.0000
27.2000 9056.0000 1.0000
27.2200 9049.0000 1.0000
27.2400 9133.0000 1.0000
27.2600 9099.0000 1.0000
27.2800 9122.0000 1.0000
27.3000 9022.0000 1.0000
27.3200 8958.0000 1.0000
27.3400 8948.0000 1.0000
27.3600 9017.0000 1.0000
27.3800 9048.0000 1.0000
27.4000 8912.0000 1.0000
27.4200 9012.0000 1.0000
27.4400 9119.0000 1.0000
27.4600 8973.0000 1.0000
27.4800 8940.0000 1.0000
27.5000 9066.0000 1.0000
27.5200 8866.0000 1.0000
27.5400 9006.0000 1.0000
27.5600 8998.0000 1.0000
27.5800 9080.0000 1.0000
27.6000 8942.0000 1.0000
27.6200 8983.0000 1.0000
27.6400 8890.0000 1.0000
27.6600 9082.0000 1.0000
27.6800 8808.0000 1.0000
27.7000 8859.0000 1.0000
27.7200 8993.0000 1.0000
27.7400 9169.0000 1.0000
27.7600 8959.0000 1.0000
27.7800 9057.0000 1.0000
27.8000 8738.0000 1.0000
27.8200 8992.0000 1.0000
27.8400 9018.0000 1.0000
27.8600 9030.0000 1.0000
27.8800 8770.0000 1.0000
27.9000 9032.0000 1.0000
27.9200 8895.0000 1.0000
27.9400 8845.0000 1.0000
27.9600 9119.0000 1.0000
27.9800 8863.0000 1.0000
28.0000 8902.0000 1.0000
28.0200 8677.0000 1.0000
28.0400 8897.0000 1.0000
28.0600 8874.0000 1.0000
28.0800 8978.0000 1.0000
28.1000 8706.0000 1.0000
28.1200 8881.0000 1.0000
28.1400 8974.0000 1.0000
28.1600 8804.0000 1.0000
28.1800 8828.0000 1.0000
28.2000 8775.0000 1.0000
28.2200 8935.0000 1.0000
28.2400 8797.0000 1.0000
28.2600 8874.0000 1.0000
28.2800 8509.0000 1.0000
28.3000 8649.0000 1.0000
28.3200 8815.0000 1.0000
28.3400 8652.0000 1.0000
28.3600 8901.0000 1.0000
28.3800 8929.0000 1.0000
28.4000 8892.0000 1.0000
28.4200 8699.0000 1.0000
28.4400 8867.0000 1.0000
28.4600 8737.0000 1.0000
28.4800 8779.0000 1.0000
28.5000 8784.0000 1.0000
28.5200 8815.0000 1.0000
28.5400 8846.0000 1.0000
28.5600 8770.0000 1.0000
28.5800 8780.0000 1.0000
28.6000 8737.0000 1.0000
28.6200 8805.0000 1.0000
28.6400 8781.0000 1.0000
28.6600 8881.0000 1.0000
28.6800 8835.0000 1.0000
28.7000 8779.0000 1.0000
28.7200 8567.0000 1.0000
28.7400 8679.0000 1.0000
28.7600 8744.0000 1.0000
28.7800 8678.0000 1.0000
28.8000 8599.0000 1.0000
28.8200 8762.0000 1.0000
28.8400 8786.0000 1.0000
28.8600 8609.0000 1.0000
28.8800 8727.0000 1.0000
28.9000 8876.0000 1.0000
28.9200 8625.0000 1.0000
28.9400 8859.0000 1.0000
28.9600 8777.0000 1.0000
28.9800 8719.0000 1.0000
29.0000 8688.0000 1.0000
29.0200 8851.0000 1.0000
29.0400 8604.0000 1.0000
29.0600 8758.0000 1.0000
29.0800 8482.0000 1.0000
29.1000 8651.0000 1.0000
29.1200 8713.0000 1.0000
29.1400 8760.0000 1.0000
29.1600 8697.0000 1.0000
29.1800 8596.0000 1.0000
29.2000 8713.0000 1.0000
29.2200 8764.0000 1.0000
29.2400 8652.0000 1.0000
29.2600 8669.0000 1.0000
29.2800 8529.0000 1.0000
29.3000 8744.0000 1.0000
29.3200 8501.0000 1.0000
29.3400 8630.0000 1.0000
29.3600 8514.0000 1.0000
29.3800 8600.0000 1.0000
29.4000 8536.0000 1.0000
29.4200 8701.0000 1.0000
29.4400 8732.0000 1.0000
29.4600 8739.0000 1.0000
29.4800 8657.0000 1.0000
29.5000 8613.0000 1.0000
29.5200 8619.0000 1.0000
29.5400 8626.0000 1.0000
29.5600 8668.0000 1.0000
29.5800 8689.0000 1.0000
29.6000 8663.0000 1.0000
29.6200 8606.0000 1.0000
29.6400 8718.0000 1.0000
29.6600 8736.0000 1.0000
29.6800 8767.0000 1.0000
29.7000 8569.0000 1.0000
29.7200 8543.0000 1.0000
29.7400 8568.0000 1.0000
29.7600 8693.0000 1.0000
29.7800 8720.0000 1.0000
29.8000 8738.0000 1.0000
29.8200 8688.0000 1.0000
29.8400 8738.0000 1.0000
29.8600 8820.0000 1.0000
29.8800 8838.0000 1.0000
29.9000 8920.0000 1.0000
29.9200 8940.0000 1.0000
29.9400 8922.0000 1.0000
29.9600 8984.0000 1.0000
29.9800 8867.0000 1.0000
30.0000 9031.0000 1.0000
30.0200 9185.0000 1.0000
30.0400 9522.0000 1.0000
30.0600 9598.0000 1.0000
30.0800 10182.0000 1.0000
30.1000 10570.0000 1.0000
30.1200 10899.0000 1.0000
30.1400 11102.0000 1.0000
30.1600 10823.0000 1.0000
30.1800 10771.0000 1.0000
30.2000 10382.0000 1.0000
30.2200 10167.0000 1.0000
30.2400 9764.0000 1.0000
30.2600 9637.0000 1.0000
30.2800 9298.0000 1.0000
30.3000 9170.0000 1.0000
30.3200 8964.0000 1.0000
30.3400 8857.0000 1.0000
30.3600 8906.0000 1.0000
30.3800 8682.0000 1.0000
30.4000 8586.0000 1.0000
30.4200 8761.0000 1.0000
30.4400 8690.0000 1.0000
30.4600 8509.0000 1.0000
30.4800 8635.0000 1.0000
30.5000 8725.0000 1.0000
30.5200 8534.0000 1.0000
30.5400 8460.0000 1.0000
30.5600 8643.0000 1.0000
30.5800 8628.0000 1.0000
30.6000 8463.0000 1.0000
30.6200 8597.0000 1.0000
30.6400 8552.0000 1.0000
30.6600 8586.0000 1.0000
30.6800 8672.0000 1.0000
30.7000 8468.0000 1.0000
30.7200 8554.0000 1.0000
30.7400 8572.0000 1.0000
30.7600 8529.0000 1.0000
30.7800 8526.0000 1.0000
30.8000 8441.0000 1.0000
30.8200 8376.0000 1.0000
30.8400 8565.0000 1.0000
30.8600 8721.0000 1.0000
30.8800 8562.0000 1.0000
30.9000 8651.0000 1.0000
30.9200 8538.0000 1.0000
30.9400 8512.0000 1.0000
30.9600 8588.0000 1.0000
30.9800 8587.0000 1.0000
31.0000 8431.0000 1.0000
31.0200 8402.0000 1.0000
31.0400 8384.0000 1.0000
31.0600 8567.0000 1.0000
31.0800 8431.0000 1.0000
31.1000 8562.0000 1.0000
31.1200 8495.0000 1.0000
31.1400 8558.0000 1.0000
31.1600 8431.0000 1.0000
31.1800 8523.0000 1.0000
31.2000 8476.0000 1.0000
31.2200 8368.0000 1.0000
31.2400 8445.0000 1.0000
31.2600 8332.0000 1.0000
31.2800 8556.0000 1.0000
31.3000 8621.0000 1.0000
31.3200 8490.0000 1.0000
31.3400 8456.0000 1.0000
31.3600 8528.0000 1.0000
31.3800 8515.0000 1.0000
31.4000 8493.0000 1.0000
31.4200 8410.0000 1.0000
31.4400 8433.0000 1.0000
31.4600 8444.0000 1.0000
31.4800 8390.0000 1.0000
31.5000 8466.0000 1.0000
31.5200 8286.0000 1.0000
31.5400 8538.0000 1.0000
31.5600 8345.0000 1.0000
31.5800 8680.0000 1.0000
31.6000 8580.0000 1.0000
31.6200 8570.0000 1.0000
31.6400 8526.0000 1.0000
31.6600 8505.0000 1.0000
31.6800 8517.0000 1.0000
31.7000 8393.0000 1.0000
31.7200 8449.0000 1.0000
31.7400 8389.0000 1.0000
31.7600 8412.0000 1.0000
31.7800 8431.0000 1.0000
31.8000 8485.0000 1.0000
31.8200 8495.0000 1.0000
31.8400 8369.0000 1.0000
31.8600 8460.0000 1.0000
31.8800 8502.0000 1.0000
31.9000 8554.0000 1.0000
31.9200 8530.0000 1.0000
31.9400 8257.0000 1.0000
31.9600 8478.0000 1.0000
31.9800 8475.0000 1.0000
32.0000 8411.0000 1.0000
32.0200 8423.0000 1.0000
32.0400 8461.0000 1.0000
32.0600 8532.0000 1.0000
32.0800 8671.0000 1.0000
32.1000 8499.0000 1.0000
32.1200 8519.0000 1.0000
32.1400 8514.0000 1.0000
32.1600 8434.0000 1.0000
32.1800 8431.0000 1.0000
32.2000 8420.0000 1.0000
32.2200 8444.0000 1.0000
32.2400 8425.0000 1.0000
32.2600 8405.0000 1.0000
32.2800 8505.0000 1.0000
32.3000 8448.0000 1.0000
32.3200 8380.0000 1.0000
32.3400 8613.0000 1.0000
32.3600 8533.0000 1.0000
32.3800 8711.0000 1.0000
32.4000 8345.0000 1.0000
32.4200 8588.0000 1.0000
32.4400 8428.0000 1.0000
32.4600 8375.0000 1.0000
32.4800 8425.0000 1.0000
32.5000 8395.0000 1.0000
32.5200 8591.0000 1.0000
32.5400 8452.0000 1.0000
32.5600 8437.0000 1.0000
32.5800 8354.0000 1.0000
32.6000 8407.0000 1.0000
32.6200 8472.0000 1.0000
32.6400 8393.0000 1.0000
32.6600 8410.0000 1.0000
32.6800 8328.0000 1.0000
32.7000 8544.0000 1.0000
32.7200 8554.0000 1.0000
32.7400 8519.0000 1.0000
32.7600 8391.0000 1.0000
32.7800 8577.0000 1.0000
32.8000 8504.0000 1.0000
32.8200 8594.0000 1.0000
32.8400 8658.0000 1.0000
32.8600 8595.0000 1.0000
32.8800 8806.0000 1.0000
32.9000 8954.0000 1.0000
32.9200 9227.0000 1.0000
32.9400 9177.0000 1.0000
32.9600 9250.0000 1.0000
32.9800 9538.0000 1.0000
33.0000 9870.0000 1.0000
33.0200 10216.0000 1.0000
33.0400 10575.0000 1.0000
33.0600 11205.0000 1.0000
33.0800 12186.0000 1.0000
33.1000 13306.0000 1.0000
33.1200 14788.0000 1.0000
33.1400 16667.0000 1.0000
33.1600 18175.0000 1.0000
33.1800 18426.0000 1.0000
33.2000 17529.0000 1.0000
33.2200 15947.0000 1.0000
33.2400 15313.0000 1.0000
33.2600 14207.0000 1.0000
33.2800 13047.0000 1.0000
33.3000 11573.0000 1.0000
33.3200 10668.0000 1.0000
33.3400 9966.0000 1.0000
33.3600 9645.0000 1.0000
33.3800 9078.0000 1.0000
33.4000 9217.0000 1.0000
33.4200 8867.0000 1.0000
33.4400 8650.0000 1.0000
33.4600 8674.0000 1.0000
33.4800 8524.0000 1.0000
33.5000 8539.0000 1.0000
33.5200 8597.0000 1.0000
33.5400 8472.0000 1.0000
33.5600 8590.0000 1.0000
33.5800 8410.0000 1.0000
33.6000 8513.0000 1.0000
33.6200 8389.0000 1.0000
33.6400 8423.0000 1.0000
33.6600 8330.0000 1.0000
33.6800 8257.0000 1.0000
33.7000 8391.0000 1.0000
33.7200 8387.0000 1.0000
33.7400 8390.0000 1.0000
33.7600 8388.0000 1.0000
33.7800 8411.0000 1.0000
33.8000 8430.0000 1.0000
33.8200 8367.0000 1.0000
33.8400 8316.0000 1.0000
33.8600 8344.0000 1.0000
33.8800 8310.0000 1.0000
33.9000 8235.0000 1.0000
33.9200 8312.0000 1.0000
33.9400 8274.0000 1.0000
33.9600 8384.0000 1.0000
33.9800 8399.0000 1.0000
34.0000 8412.0000 1.0000
34.0200 8398.0000 1.0000
34.0400 8369.0000 1.0000
34.0600 8381.0000 1.0000
34.0800 8372.0000 1.0000
34.1000 8278.0000 1.0000
34.1200 8324.0000 1.0000
34.1400 8262.0000 1.0000
34.1600 8338.0000 1.0000
34.1800 8311.0000 1.0000
34.2000 8401.0000 1.0000
34.2200 8282.0000 1.0000
34.2400 8470.0000 1.0000
34.2600 8209.0000 1.0000
34.2800 8434.0000 1.0000
34.3000 8422.0000 1.0000
34.3200 8434.0000 1.0000
34.3400 8338.0000 1.0000
34.3600 8472.0000 1.0000
34.3800 8304.0000 1.0000
34.4000 8458.0000 1.0000
34.4200 8429.0000 1.0000
34.4400 8388.0000 1.0000
34.4600 8429.0000 1.0000
34.4800 8379.0000 1.0000
34.5000 8413.0000 1.0000
34.5200 8514.0000 1.0000
34.5400 8338.0000 1.0000
34.5600 8120.0000 1.0000
34.5800 8292.0000 1.0000
34.6000 8531.0000 1.0000
34.6200 8392.0000 1.0000
34.6400 8525.0000 1.0000
34.6600 8441.0000 1.0000
34.6800 8347.0000 1.0000
34.7000 8490.0000 1.0000
34.7200 8442.0000 1.0000
34.7400 8432.0000 1.0000
34.7600 8556.0000 1.0000
34.7800 8346.0000 1.0000
34.8000 8583.0000 1.0000
34.8200 8557.0000 1.0000
34.8400 8591.0000 1.0000
34.8600 8491.0000 1.0000
34.8800 8855.0000 1.0000
34.9000 8857.0000 1.0000
34.9200 9044.0000 1.0000
34.9400 9048.0000 1.0000
34.9600 9203.0000 1.0000
34.9800 9392.0000 1.0000
35.0000 9715.0000 1.0000
35.0200 10051.0000 1.0000
35.0400 10434.0000 1.0000
35.0600 10955.0000 1.0000
35.0800 11557.0000 1.0000
35.1000 12513.0000 1.0000
35.1200 13713.0000 1.0000
35.1400 14748.0000 1.0000
35.1600 15249.0000 1.0000
35.1800 14542.0000 1.0000
35.2000 13640.0000 1.0000
35.2200 13132.0000 1.0000
35.2400 13009.0000 1.0000
35.2600 12817.0000 1.0000
35.2800 11818.0000 1.0000
35.3000 11132.0000 1.0000
35.3200 10897.0000 1.0000
35.3400 10996.0000 1.0000
35.3600 11062.0000 1.0000
35.3800 11554.0000 1.0000
35.4000 12117.0000 1.0000
35.4200 13397.0000 1.0000
35.4400 14425.0000 1.0000
35.4600 15815.0000 1.0000
35.4800 17092.0000 1.0000
35.5000 17815.0000 1.0000
35.5200 17757.0000 1.0000
35.5400 17329.0000 1.0000
35.5600 17520.0000 1.0000
35.5800 17913.0000 1.0000
35.6000 18380.0000 1.0000
35.6200 18445.0000 1.0000
35.6400 18637.0000 1.0000
35.6600 17600.0000 1.0000
35.6800 16077.0000 1.0000
35.7000 14891.0000 1.0000
35.7200 14089.0000 1.0000
35.7400 13227.0000 1.0000
35.7600 12390.0000 1.0000
35.7800 11150.0000 1.0000
35.8000 10357.0000 1.0000
35.8200 9808.0000 1.0000
35.8400 9524.0000 1.0000
35.8600 8948.0000 1.0000
35.8800 9095.0000 1.0000
35.9000 8910.0000 1.0000
35.9200 8912.0000 1.0000
35.9400 8686.0000 1.0000
35.9600 8629.0000 1.0000
35.9800 8507.0000 1.0000
36.0000 8487.0000 1.0000
36.0200 8498.0000 1.0000
36.0400 8506.0000 1.0000
36.0600 8439.0000 1.0000
36.0800 8244.0000 1.0000
36.1000 8337.0000 1.0000
36.1200 8318.0000 1.0000
36.1400 8459.0000 1.0000
36.1600 8438.0000 1.0000
36.1800 8372.0000 1.0000
36.2000 8319.0000 1.0000
36.2200 8366.0000 1.0000
36.2400 8388.0000 1.0000
36.2600 8396.0000 1.0000
36.2800 8396.0000 1.0000
36.3000 8495.0000 1.0000
36.3200 8430.0000 1.0000
36.3400 8544.0000 1.0000
36.3600 8628.0000 1.0000
36.3800 8671.0000 1.0000
36.4000 8582.0000 1.0000
36.4200 8800.0000 1.0000
36.4400 8755.0000 1.0000
36.4600 8992.0000 1.0000
36.4800 9270.0000 1.0000
36.5000 9816.0000 1.0000
36.5200 11059.0000 1.0000
36.5400 12931.0000 1.0000
36.5600 12934.0000 1.0000
36.5800 11960.0000 1.0000
36.6000 10589.0000 1.0000
36.6200 10387.0000 1.0000
36.6400 10821.0000 1.0000
36.6600 10510.0000 1.0000
36.6800 9863.0000 1.0000
36.7000 9120.0000 1.0000
36.7200 8768.0000 1.0000
36.7400 8383.0000 1.0000
36.7600 8419.0000 1.0000
36.7800 8332.0000 1.0000
36.8000 8170.0000 1.0000
36.8200 8443.0000 1.0000
36.8400 8139.0000 1.0000
36.8600 8148.0000 1.0000
36.8800 8311.0000 1.0000
36.9000 8518.0000 1.0000
36.9200 8300.0000 1.0000
36.9400 8367.0000 1.0000
36.9600 8225.0000 1.0000
36.9800 8390.0000 1.0000
37.0000 8256.0000 1.0000
37.0200 8318.0000 1.0000
37.0400 8397.0000 1.0000
37.0600 8322.0000 1.0000
37.0800 8530.0000 1.0000
37.1000 8588.0000 1.0000
37.1200 8620.0000 1.0000
37.1400 8701.0000 1.0000
37.1600 8624.0000 1.0000
37.1800 8468.0000 1.0000
37.2000 8518.0000 1.0000
37.2200 8462.0000 1.0000
37.2400 8285.0000 1.0000
37.2600 8302.0000 1.0000
37.2800 8518.0000 1.0000
37.3000 8261.0000 1.0000
37.3200 8208.0000 1.0000
37.3400 8356.0000 1.0000
37.3600 8230.0000 1.0000
37.3800 8415.0000 1.0000
37.4000 8246.0000 1.0000
37.4200 8290.0000 1.0000
37.4400 8236.0000 1.0000
37.4600 8085.0000 1.0000
37.4800 8382.0000 1.0000
37.5000 8339.0000 1.0000
37.5200 8387.0000 1.0000
37.5400 8360.0000 1.0000
37.5600 8481.0000 1.0000
37.5800 8454.0000 1.0000
37.6000 8727.0000 1.0000
37.6200 8695.0000 1.0000
37.6400 8849.0000 1.0000
37.6600 9077.0000 1.0000
37.6800 9263.0000 1.0000
37.7000 9382.0000 1.0000
37.7200 9831.0000 1.0000
37.7400 10390.0000 1.0000
37.7600 10774.0000 1.0000
37.7800 10979.0000 1.0000
37.8000 10510.0000 1.0000
37.8200 10272.0000 1.0000
37.8400 10027.0000 1.0000
37.8600 9982.0000 1.0000
37.8800 9846.0000 1.0000
37.9000 9443.0000 1.0000
37.9200 9161.0000 1.0000
37.9400 8926.0000 1.0000
37.9600 8669.0000 1.0000
37.9800 8523.0000 1.0000
38.0000 8533.0000 1.0000
38.0200 8399.0000 1.0000
38.0400 8376.0000 1.0000
38.0600 8423.0000 1.0000
38.0800 8263.0000 1.0000
38.1000 8294.0000 1.0000
38.1200 8369.0000 1.0000
38.1400 8195.0000 1.0000
38.1600 8340.0000 1.0000
38.1800 8089.0000 1.0000
38.2000 8191.0000 1.0000
38.2200 8142.0000 1.0000
38.2400 8208.0000 1.0000
38.2600 8192.0000 1.0000
38.2800 8235.0000 1.0000
38.3000 8218.0000 1.0000
38.3200 8032.0000 1.0000
38.3400 8096.0000 1.0000
38.3600 8476.0000 1.0000
38.3800 8145.0000 1.0000
38.4000 7992.0000 1.0000
38.4200 8160.0000 1.0000
38.4400 8039.0000 1.0000
38.4600 8087.0000 1.0000
38.4800 8238.0000 1.0000
38.5000 8194.0000 1.0000
38.5200 8133.0000 1.0000
38.5400 8127.0000 1.0000
38.5600 8287.0000 1.0000
38.5800 8104.0000 1.0000
38.6000 8077.0000 1.0000
38.6200 7922.0000 1.0000
38.6400 8041.0000 1.0000
38.6600 8180.0000 1.0000
38.6800 8117.0000 1.0000
38.7000 8005.0000 1.0000
38.7200 8242.0000 1.0000
38.7400 8153.0000 1.0000
38.7600 8030.0000 1.0000
38.7800 8222.0000 1.0000
38.8000 8336.0000 1.0000
38.8200 8056.0000 1.0000
38.8400 8049.0000 1.0000
38.8600 8225.0000 1.0000
38.8800 8120.0000 1.0000
38.9000 8067.0000 1.0000
38.9200 8218.0000 1.0000
38.9400 8201.0000 1.0000
38.9600 8311.0000 1.0000
38.9800 8298.0000 1.0000
39.0000 8363.0000 1.0000
39.0200 8271.0000 1.0000
39.0400 7966.0000 1.0000
39.0600 8255.0000 1.0000
39.0800 8097.0000 1.0000
39.1000 8119.0000 1.0000
39.1200 8255.0000 1.0000
39.1400 8146.0000 1.0000
39.1600 8206.0000 1.0000
39.1800 8216.0000 1.0000
39.2000 8228.0000 1.0000
39.2200 8238.0000 1.0000
39.2400 8303.0000 1.0000
39.2600 8468.0000 1.0000
39.2800 8336.0000 1.0000
39.3000 8335.0000 1.0000
39.3200 8592.0000 1.0000
39.3400 8550.0000 1.0000
39.3600 8674.0000 1.0000
39.3800 8884.0000 1.0000
39.4000 8771.0000 1.0000
39.4200 8914.0000 1.0000
39.4400 9245.0000 1.0000
39.4600 10328.0000 1.0000
39.4800 11363.0000 1.0000
39.5000 10733.0000 1.0000
39.5200 9446.0000 1.0000
39.5400 9195.0000 1.0000
39.5600 9279.0000 1.0000
39.5800 9815.0000 1.0000
39.6000 9495.0000 1.0000
39.6200 8698.0000 1.0000
39.6400 8557.0000 1.0000
39.6600 8324.0000 1.0000
39.6800 8200.0000 1.0000
39.7000 8209.0000 1.0000
39.7200 8040.0000 1.0000
39.7400 8019.0000 1.0000
39.7600 8101.0000 1.0000
39.7800 8099.0000 1.0000
39.8000 8228.0000 1.0000
39.8200 8051.0000 1.0000
39.8400 8054.0000 1.0000
39.8600 8281.0000 1.0000
39.8800 7932.0000 1.0000
39.9000 7891.0000 1.0000
39.9200 8128.0000 1.0000
39.9400 8091.0000 1.0000
39.9600 8040.0000 1.0000
39.9800 8013.0000 1.0000
40.0000 8139.0000 1.0000
40.0200 8112.0000 1.0000
40.0400 8295.0000 1.0000
40.0600 8168.0000 1.0000
40.0800 8124.0000 1.0000
40.1000 8038.0000 1.0000
40.1200 8322.0000 1.0000
40.1400 8074.0000 1.0000
40.1600 8104.0000 1.0000
40.1800 8177.0000 1.0000
40.2000 8202.0000 1.0000
40.2200 8470.0000 1.0000
40.2400 8461.0000 1.0000
40.2600 8603.0000 1.0000
40.2800 8864.0000 1.0000
40.3000 9013.0000 1.0000
40.3200 8947.0000 1.0000
40.3400 8635.0000 1.0000
40.3600 8350.0000 1.0000
40.3800 8601.0000 1.0000
40.4000 8568.0000 1.0000
40.4200 8547.0000 1.0000
40.4400 8407.0000 1.0000
40.4600 8309.0000 1.0000
40.4800 8130.0000 1.0000
40.5000 8274.0000 1.0000
40.5200 8168.0000 1.0000
40.5400 7965.0000 1.0000
40.5600 8080.0000 1.0000
40.5800 8120.0000 1.0000
40.6000 8304.0000 1.0000
40.6200 8222.0000 1.0000
40.6400 8255.0000 1.0000
40.6600 8198.0000 1.0000
40.6800 8343.0000 1.0000
40.7000 8411.0000 1.0000
40.7200 8376.0000 1.0000
40.7400 8448.0000 1.0000
40.7600 8651.0000 1.0000
40.7800 8733.0000 1.0000
40.8000 9142.0000 1.0000
40.8200 9434.0000 1.0000
40.8400 10028.0000 1.0000
40.8600 10138.0000 1.0000
40.8800 10205.0000 1.0000
40.9000 9891.0000 1.0000
40.9200 9596.0000 1.0000
40.9400 9740.0000 1.0000
40.9600 9394.0000 1.0000
40.9800 9438.0000 1.0000
41.0000 8984.0000 1.0000
41.0200 8753.0000 1.0000
41.0400 8547.0000 1.0000
41.0600 8495.0000 1.0000
41.0800 8222.0000 1.0000
41.1000 8464.0000 1.0000
41.1200 8110.0000 1.0000
41.1400 8204.0000 1.0000
41.1600 8127.0000 1.0000
41.1800 8066.0000 1.0000
41.2000 8133.0000 1.0000
41.2200 8244.0000 1.0000
41.2400 8149.0000 1.0000
41.2600 8212.0000 1.0000
41.2800 8276.0000 1.0000
41.3000 8044.0000 1.0000
41.3200 8033.0000 1.0000
41.3400 7971.0000 1.0000
41.3600 8228.0000 1.0000
41.3800 8236.0000 1.0000
41.4000 8074.0000 1.0000
41.4200 8265.0000 1.0000
41.4400 8190.0000 1.0000
41.4600 8023.0000 1.0000
41.4800 8086.0000 1.0000
41.5000 8080.0000 1.0000
41.5200 8007.0000 1.0000
41.5400 8016.0000 1.0000
41.5600 8021.0000 1.0000
41.5800 8159.0000 1.0000
41.6000 7981.0000 1.0000
41.6200 8118.0000 1.0000
41.6400 8044.0000 1.0000
41.6600 8202.0000 1.0000
41.6800 8093.0000 1.0000
41.7000 7916.0000 1.0000
41.7200 8106.0000 1.0000
41.7400 7984.0000 1.0000
41.7600 7980.0000 1.0000
41.7800 8064.0000 1.0000
41.8000 8187.0000 1.0000
41.8200 8143.0000 1.0000
41.8400 8190.0000 1.0000
41.8600 8188.0000 1.0000
41.8800 8152.0000 1.0000
41.9000 8047.0000 1.0000
41.9200 8126.0000 1.0000
41.9400 8132.0000 1.0000
41.9600 8132.0000 1.0000
41.9800 8015.0000 1.0000
42.0000 8119.0000 1.0000
42.0200 8064.0000 1.0000
42.0400 8019.0000 1.0000
42.0600 8060.0000 1.0000
42.0800 8189.0000 1.0000
42.1000 8123.0000 1.0000
42.1200 7943.0000 1.0000
42.1400 8257.0000 1.0000
42.1600 8055.0000 1.0000
42.1800 7968.0000 1.0000
42.2000 8108.0000 1.0000
42.2200 8123.0000 1.0000
42.2400 8174.0000 1.0000
42.2600 8133.0000 1.0000
42.2800 8173.0000 1.0000
42.3000 8306.0000 1.0000
42.3200 8216.0000 1.0000
42.3400 8176.0000 1.0000
42.3600 8549.0000 1.0000
42.3800 8654.0000 1.0000
42.4000 8942.0000 1.0000
42.4200 9459.0000 1.0000
42.4400 10053.0000 1.0000
42.4600 10908.0000 1.0000
42.4800 10490.0000 1.0000
42.5000 9593.0000 1.0000
42.5200 9091.0000 1.0000
42.5400 8940.0000 1.0000
42.5600 9378.0000 1.0000
42.5800 9545.0000 1.0000
42.6000 8919.0000 1.0000
42.6200 8471.0000 1.0000
42.6400 8397.0000 1.0000
42.6600 8302.0000 1.0000
42.6800 8175.0000 1.0000
42.7000 8151.0000 1.0000
42.7200 8129.0000 1.0000
42.7400 8068.0000 1.0000
42.7600 8164.0000 1.0000
42.7800 8241.0000 1.0000
42.8000 8140.0000 1.0000
42.8200 8035.0000 1.0000
42.8400 8302.0000 1.0000
42.8600 8227.0000 1.0000
42.8800 8321.0000 1.0000
42.9000 8310.0000 1.0000
42.9200 8364.0000 1.0000
42.9400 8407.0000 1.0000
42.9600 8502.0000 1.0000
42.9800 8568.0000 1.0000
43.0000 8511.0000 1.0000
43.0200 8755.0000 1.0000
43.0400 9155.0000 1.0000
43.0600 9404.0000 1.0000
43.0800 9707.0000 1.0000
43.1000 10196.0000 1.0000
43.1200 10346.0000 1.0000
43.1400 10310.0000 1.0000
43.1600 10338.0000 1.0000
43.1800 10479.0000 1.0000
43.2000 10618.0000 1.0000
43.2200 10933.0000 1.0000
43.2400 11256.0000 1.0000
43.2600 11667.0000 1.0000
43.2800 12292.0000 1.0000
43.3000 13428.0000 1.0000
43.3200 14605.0000 1.0000
43.3400 15597.0000 1.0000
43.3600 15836.0000 1.0000
43.3800 14799.0000 1.0000
43.4000 13996.0000 1.0000
43.4200 12911.0000 1.0000
43.4400 12635.0000 1.0000
43.4600 12739.0000 1.0000
43.4800 12245.0000 1.0000
43.5000 11500.0000 1.0000
43.5200 10728.0000 1.0000
43.5400 9940.0000 1.0000
43.5600 9613.0000 1.0000
43.5800 9088.0000 1.0000
43.6000 8942.0000 1.0000
43.6200 8854.0000 1.0000
43.6400 8729.0000 1.0000
43.6600 8570.0000 1.0000
43.6800 8624.0000 1.0000
43.7000 8361.0000 1.0000
43.7200 8219.0000 1.0000
43.7400 8343.0000 1.0000
43.7600 8373.0000 1.0000
43.7800 8085.0000 1.0000
43.8000 8194.0000 1.0000
43.8200 8135.0000 1.0000
43.8400 8182.0000 1.0000
43.8600 8155.0000 1.0000
43.8800 8185.0000 1.0000
43.9000 8003.0000 1.0000
43.9200 8121.0000 1.0000
43.9400 8084.0000 1.0000
43.9600 8149.0000 1.0000
43.9800 8019.0000 1.0000
44.0000 7980.0000 1.0000
44.0200 8095.0000 1.0000
44.0400 8034.0000 1.0000
44.0600 8041.0000 1.0000
44.0800 8057.0000 1.0000
44.1000 7850.0000 1.0000
44.1200 8001.0000 1.0000
44.1400 7971.0000 1.0000
44.1600 7969.0000 1.0000
44.1800 8095.0000 1.0000
44.2000 8008.0000 1.0000
44.2200 7980.0000 1.0000
44.2400 7870.0000 1.0000
44.2600 7931.0000 1.0000
44.2800 7951.0000 1.0000
44.3000 7912.0000 1.0000
44.3200 8090.0000 1.0000
44.3400 7988.0000 1.0000
44.3600 8084.0000 1.0000
44.3800 7995.0000 1.0000
44.4000 8100.0000 1.0000
44.4200 8017.0000 1.0000
44.4400 8120.0000 1.0000
44.4600 8160.0000 1.0000
44.4800 7922.0000 1.0000
44.5000 7972.0000 1.0000
44.5200 8014.0000 1.0000
44.5400 7934.0000 1.0000
44.5600 7917.0000 1.0000
44.5800 8182.0000 1.0000
44.6000 7907.0000 1.0000
44.6200 8106.0000 1.0000
44.6400 8013.0000 1.0000
44.6600 8004.0000 1.0000
44.6800 8003.0000 1.0000
44.7000 7895.0000 1.0000
44.7200 8111.0000 1.0000
44.7400 7851.0000 1.0000
44.7600 8079.0000 1.0000
44.7800 8242.0000 1.0000
44.8000 8121.0000 1.0000
44.8200 7877.0000 1.0000
44.8400 7967.0000 1.0000
44.8600 7896.0000 1.0000
44.8800 7920.0000 1.0000
44.9000 7868.0000 1.0000
44.9200 7933.0000 1.0000
44.9400 7989.0000 1.0000
44.9600 8014.0000 1.0000
44.9800 8068.0000 1.0000
45.0000 8069.0000 1.0000
45.0200 7986.0000 1.0000
45.0400 7908.0000 1.0000
45.0600 7942.0000 1.0000
45.0800 7861.0000 1.0000
45.1000 7841.0000 1.0000
45.1200 8032.0000 1.0000
45.1400 8020.0000 1.0000
45.1600 8001.0000 1.0000
45.1800 7950.0000 1.0000
45.2000 7936.0000 1.0000
45.2200 8019.0000 1.0000
45.2400 8037.0000 1.0000
45.2600 7916.0000 1.0000
45.2800 8033.0000 1.0000
45.3000 7993.0000 1.0000
45.3200 7885.0000 1.0000
45.3400 8002.0000 1.0000
45.3600 7988.0000 1.0000
45.3800 7863.0000 1.0000
45.4000 8025.0000 1.0000
45.4200 8041.0000 1.0000
45.4400 8050.0000 1.0000
45.4600 7981.0000 1.0000
45.4800 7847.0000 1.0000
45.5000 7855.0000 1.0000
45.5200 7995.0000 1.0000
45.5400 8052.0000 1.0000
45.5600 7943.0000 1.0000
45.5800 8027.0000 1.0000
45.6000 7921.0000 1.0000
45.6200 8099.0000 1.0000
45.6400 8167.0000 1.0000
45.6600 8174.0000 1.0000
45.6800 8041.0000 1.0000
45.7000 8078.0000 1.0000
45.7200 8272.0000 1.0000
45.7400 8135.0000 1.0000
45.7600 8367.0000 1.0000
45.7800 8702.0000 1.0000
45.8000 8969.0000 1.0000
45.8200 9059.0000 1.0000
45.8400 8748.0000 1.0000
45.8600 8191.0000 1.0000
45.8800 8283.0000 1.0000
45.9000 8353.0000 1.0000
45.9200 8509.0000 1.0000
45.9400 8518.0000 1.0000
45.9600 8250.0000 1.0000
45.9800 8033.0000 1.0000
46.0000 7958.0000 1.0000
46.0200 7940.0000 1.0000
46.0400 8048.0000 1.0000
46.0600 7922.0000 1.0000
46.0800 8044.0000 1.0000
46.1000 8087.0000 1.0000
46.1200 8129.0000 1.0000
46.1400 8013.0000 1.0000
46.1600 7911.0000 1.0000
46.1800 7990.0000 1.0000
46.2000 7938.0000 1.0000
46.2200 7837.0000 1.0000
46.2400 7959.0000 1.0000
46.2600 7835.0000 1.0000
46.2800 7940.0000 1.0000
46.3000 7867.0000 1.0000
46.3200 7866.0000 1.0000
46.3400 7800.0000 1.0000
46.3600 7971.0000 1.0000
46.3800 7912.0000 1.0000
46.4000 7859.0000 1.0000
46.4200 7989.0000 1.0000
46.4400 7839.0000 1.0000
46.4600 7952.0000 1.0000
46.4800 7796.0000 1.0000
46.5000 7954.0000 1.0000
46.5200 7801.0000 1.0000
46.5400 7832.0000 1.0000
46.5600 7913.0000 1.0000
46.5800 7958.0000 1.0000
46.6000 7893.0000 1.0000
46.6200 7644.0000 1.0000
46.6400 8014.0000 1.0000
46.6600 7922.0000 1.0000
46.6800 8010.0000 1.0000
46.7000 7957.0000 1.0000
46.7200 7903.0000 1.0000
46.7400 8046.0000 1.0000
46.7600 7924.0000 1.0000
46.7800 7660.0000 1.0000
46.8000 7997.0000 1.0000
46.8200 7865.0000 1.0000
46.8400 7913.0000 1.0000
46.8600 7941.0000 1.0000
46.8800 7879.0000 1.0000
46.9000 7904.0000 1.0000
46.9200 7864.0000 1.0000
46.9400 7858.0000 1.0000
46.9600 7886.0000 1.0000
46.9800 7957.0000 1.0000
47.0000 7967.0000 1.0000
47.0200 7842.0000 1.0000
47.0400 7856.0000 1.0000
47.0600 8002.0000 1.0000
47.0800 7848.0000 1.0000
47.1000 7790.0000 1.0000
47.1200 7891.0000 1.0000
47.1400 7962.0000 1.0000
47.1600 7975.0000 1.0000
47.1800 7925.0000 1.0000
47.2000 7972.0000 1.0000
47.2200 8025.0000 1.0000
47.2400 7987.0000 1.0000
47.2600 7919.0000 1.0000
47.2800 7922.0000 1.0000
47.3000 7907.0000 1.0000
47.3200 7936.0000 1.0000
47.3400 7861.0000 1.0000
47.3600 7835.0000 1.0000
47.3800 7918.0000 1.0000
47.4000 7868.0000 1.0000
47.4200 7906.0000 1.0000
47.4400 7917.0000 1.0000
47.4600 7825.0000 1.0000
47.4800 7976.0000 1.0000
47.5000 7733.0000 1.0000
47.5200 7949.0000 1.0000
47.5400 7796.0000 1.0000
47.5600 7896.0000 1.0000
47.5800 7880.0000 1.0000
47.6000 7994.0000 1.0000
47.6200 7811.0000 1.0000
47.6400 7791.0000 1.0000
47.6600 7817.0000 1.0000
47.6800 7863.0000 1.0000
47.7000 7890.0000 1.0000
47.7200 8035.0000 1.0000
47.7400 8013.0000 1.0000
47.7600 7920.0000 1.0000
47.7800 7953.0000 1.0000
47.8000 7848.0000 1.0000
47.8200 7793.0000 1.0000
47.8400 7808.0000 1.0000
47.8600 7948.0000 1.0000
47.8800 7884.0000 1.0000
47.9000 7821.0000 1.0000
47.9200 7932.0000 1.0000
47.9400 7922.0000 1.0000
47.9600 7869.0000 1.0000
47.9800 7801.0000 1.0000
48.0000 7888.0000 1.0000
48.0200 7881.0000 1.0000
48.0400 7982.0000 1.0000
48.0600 7830.0000 1.0000
48.0800 7974.0000 1.0000
48.1000 7751.0000 1.0000
48.1200 7922.0000 1.0000
48.1400 7926.0000 1.0000
48.1600 7886.0000 1.0000
48.1800 7796.0000 1.0000
48.2000 7788.0000 1.0000
48.2200 7864.0000 1.0000
48.2400 7935.0000 1.0000
48.2600 8049.0000 1.0000
48.2800 7713.0000 1.0000
48.3000 7929.0000 1.0000
48.3200 7994.0000 1.0000
48.3400 7896.0000 1.0000
48.3600 7990.0000 1.0000
48.3800 8027.0000 1.0000
48.4000 7939.0000 1.0000
48.4200 7991.0000 1.0000
48.4400 7983.0000 1.0000
48.4600 7928.0000 1.0000
48.4800 7898.0000 1.0000
48.5000 7840.0000 1.0000
48.5200 7984.0000 1.0000
48.5400 7915.0000 1.0000
48.5600 7855.0000 1.0000
48.5800 7903.0000 1.0000
48.6000 7915.0000 1.0000
48.6200 7942.0000 1.0000
48.6400 7976.0000 1.0000
48.6600 7842.0000 1.0000
48.6800 7792.0000 1.0000
48.7000 7903.0000 1.0000
48.7200 7933.0000 1.0000
48.7400 7867.0000 1.0000
48.7600 7870.0000 1.0000
48.7800 7892.0000 1.0000
48.8000 8002.0000 1.0000
48.8200 7847.0000 1.0000
48.8400 7934.0000 1.0000
48.8600 7923.0000 1.0000
48.8800 7914.0000 1.0000
48.9000 7940.0000 1.0000
48.9200 7874.0000 1.0000
48.9400 7836.0000 1.0000
48.9600 7924.0000 1.0000
48.9800 8033.0000 1.0000
49.0000 7922.0000 1.0000
49.0200 8089.0000 1.0000
49.0400 7895.0000 1.0000
49.0600 7991.0000 1.0000
49.0800 7946.0000 1.0000
49.1000 7981.0000 1.0000
49.1200 8068.0000 1.0000
49.1400 7885.0000 1.0000
49.1600 7699.0000 1.0000
49.1800 7897.0000 1.0000
49.2000 8067.0000 1.0000
49.2200 8334.0000 1.0000
49.2400 8201.0000 1.0000
49.2600 8069.0000 1.0000
49.2800 8257.0000 1.0000
49.3000 8451.0000 1.0000
49.3200 8632.0000 1.0000
49.3400 8858.0000 1.0000
49.3600 9023.0000 1.0000
49.3800 9211.0000 1.0000
49.4000 9706.0000 1.0000
49.4200 10128.0000 1.0000
49.4400 10733.0000 1.0000
49.4600 11421.0000 1.0000
49.4800 11404.0000 1.0000
49.5000 10932.0000 1.0000
49.5200 10340.0000 1.0000
49.5400 9845.0000 1.0000
49.5600 9951.0000 1.0000
49.5800 9895.0000 1.0000
49.6000 9959.0000 1.0000
49.6200 10010.0000 1.0000
49.6400 9277.0000 1.0000
49.6600 9140.0000 1.0000
49.6800 8778.0000 1.0000
49.7000 8455.0000 1.0000
49.7200 8412.0000 1.0000
49.7400 8224.0000 1.0000
49.7600 8163.0000 1.0000
49.7800 8297.0000 1.0000
49.8000 8140.0000 1.0000
49.8200 8019.0000 1.0000
49.8400 8027.0000 1.0000
49.8600 7978.0000 1.0000
49.8800 8174.0000 1.0000
49.9000 8267.0000 1.0000
49.9200 8270.0000 1.0000
49.9400 8211.0000 1.0000
49.9600 8244.0000 1.0000
49.9800 8134.0000 1.0000
50.0000 8475.0000 1.0000
50.0200 8461.0000 1.0000
50.0400 8811.0000 1.0000
50.0600 8986.0000 1.0000
50.0800 9910.0000 1.0000
50.1000 10833.0000 1.0000
50.1200 12999.0000 1.0000
50.1400 14412.0000 1.0000
50.1600 13512.0000 1.0000
50.1800 11239.0000 1.0000
50.2000 9833.0000 1.0000
50.2200 9710.0000 1.0000
50.2400 10020.0000 1.0000
50.2600 10865.0000 1.0000
50.2800 11271.0000 1.0000
50.3000 10300.0000 1.0000
50.3200 9194.0000 1.0000
50.3400 8439.0000 1.0000
50.3600 8219.0000 1.0000
50.3800 8226.0000 1.0000
50.4000 8153.0000 1.0000
50.4200 7979.0000 1.0000
50.4400 8002.0000 1.0000
50.4600 8003.0000 1.0000
50.4800 7905.0000 1.0000
50.5000 8067.0000 1.0000
50.5200 7938.0000 1.0000
50.5400 8163.0000 1.0000
50.5600 8011.0000 1.0000
50.5800 8039.0000 1.0000
50.6000 7893.0000 1.0000
50.6200 7839.0000 1.0000
50.6400 7997.0000 1.0000
50.6600 7900.0000 1.0000
50.6800 7787.0000 1.0000
50.7000 7973.0000 1.0000
50.7200 7960.0000 1.0000
50.7400 7902.0000 1.0000
50.7600 7864.0000 1.0000
50.7800 7886.0000 1.0000
50.8000 7765.0000 1.0000
50.8200 7992.0000 1.0000
50.8400 7979.0000 1.0000
50.8600 7988.0000 1.0000
50.8800 7844.0000 1.0000
50.9000 7866.0000 1.0000
50.9200 7732.0000 1.0000
50.9400 7890.0000 1.0000
50.9600 7919.0000 1.0000
50.9800 8081.0000 1.0000
51.0000 7965.0000 1.0000
51.0200 7913.0000 1.0000
51.0400 7836.0000 1.0000
51.0600 7978.0000 1.0000
51.0800 8030.0000 1.0000
51.1000 7969.0000 1.0000
51.1200 7850.0000 1.0000
51.1400 7937.0000 1.0000
51.1600 7894.0000 1.0000
51.1800 7904.0000 1.0000
51.2000 7746.0000 1.0000
51.2200 7901.0000 1.0000
51.2400 8002.0000 1.0000
51.2600 7973.0000 1.0000
51.2800 7914.0000 1.0000
51.3000 7909.0000 1.0000
51.3200 7802.0000 1.0000
51.3400 7857.0000 1.0000
51.3600 7903.0000 1.0000
51.3800 7913.0000 1.0000
51.4000 7820.0000 1.0000
51.4200 7939.0000 1.0000
51.4400 7863.0000 1.0000
51.4600 7944.0000 1.0000
51.4800 7962.0000 1.0000
51.5000 7915.0000 1.0000
51.5200 7956.0000 1.0000
51.5400 8029.0000 1.0000
51.5600 7907.0000 1.0000
51.5800 8025.0000 1.0000
51.6000 8065.0000 1.0000
51.6200 7964.0000 1.0000
51.6400 8019.0000 1.0000
51.6600 7971.0000 1.0000
51.6800 7898.0000 1.0000
51.7000 7895.0000 1.0000
51.7200 7848.0000 1.0000
51.7400 7986.0000 1.0000
51.7600 8024.0000 1.0000
51.7800 7887.0000 1.0000
51.8000 8164.0000 1.0000
51.8200 7961.0000 1.0000
51.8400 7881.0000 1.0000
51.8600 7782.0000 1.0000
51.8800 8022.0000 1.0000
51.9000 7938.0000 1.0000
51.9200 7708.0000 1.0000
51.9400 8012.0000 1.0000
51.9600 7919.0000 1.0000
51.9800 7883.0000 1.0000
52.0000 8058.0000 1.0000
52.0200 7986.0000 1.0000
52.0400 7820.0000 1.0000
52.0600 7906.0000 1.0000
52.0800 8048.0000 1.0000
52.1000 7886.0000 1.0000
52.1200 7974.0000 1.0000
52.1400 8049.0000 1.0000
52.1600 8078.0000 1.0000
52.1800 8086.0000 1.0000
52.2000 8066.0000 1.0000
52.2200 7806.0000 1.0000
52.2400 8105.0000 1.0000
52.2600 8064.0000 1.0000
52.2800 8093.0000 1.0000
52.3000 8203.0000 1.0000
52.3200 8362.0000 1.0000
52.3400 8497.0000 1.0000
52.3600 8543.0000 1.0000
52.3800 8338.0000 1.0000
52.4000 8510.0000 1.0000
52.4200 8751.0000 1.0000
52.4400 8873.0000 1.0000
52.4600 9332.0000 1.0000
52.4800 9686.0000 1.0000
52.5000 10237.0000 1.0000
52.5200 10484.0000 1.0000
52.5400 10889.0000 1.0000
52.5600 10950.0000 1.0000
52.5800 10580.0000 1.0000
52.6000 9982.0000 1.0000
52.6200 9785.0000 1.0000
52.6400 9483.0000 1.0000
52.6600 9536.0000 1.0000
52.6800 9845.0000 1.0000
52.7000 9641.0000 1.0000
52.7200 9444.0000 1.0000
52.7400 9162.0000 1.0000
52.7600 8597.0000 1.0000
52.7800 8493.0000 1.0000
52.8000 8327.0000 1.0000
52.8200 8226.0000 1.0000
52.8400 8138.0000 1.0000
52.8600 8114.0000 1.0000
52.8800 8271.0000 1.0000
52.9000 8053.0000 1.0000
52.9200 8115.0000 1.0000
52.9400 8018.0000 1.0000
52.9600 8175.0000 1.0000
52.9800 8106.0000 1.0000
53.0000 8020.0000 1.0000
53.0200 7921.0000 1.0000
53.0400 8038.0000 1.0000
53.0600 7974.0000 1.0000
53.0800 7957.0000 1.0000
53.1000 7933.0000 1.0000
53.1200 8019.0000 1.0000
53.1400 7976.0000 1.0000
53.1600 7962.0000 1.0000
53.1800 7992.0000 1.0000
53.2000 7956.0000 1.0000
53.2200 7975.0000 1.0000
53.2400 8065.0000 1.0000
53.2600 8056.0000 1.0000
53.2800 8082.0000 1.0000
53.3000 8171.0000 1.0000
53.3200 8043.0000 1.0000
53.3400 8128.0000 1.0000
53.3600 7999.0000 1.0000
53.3800 7937.0000 1.0000
53.4000 8296.0000 1.0000
53.4200 8288.0000 1.0000
53.4400 8421.0000 1.0000
53.4600 8320.0000 1.0000
53.4800 8666.0000 1.0000
53.5000 8397.0000 1.0000
53.5200 8455.0000 1.0000
53.5400 8490.0000 1.0000
53.5600 8397.0000 1.0000
53.5800 8475.0000 1.0000
53.6000 8560.0000 1.0000
53.6200 8485.0000 1.0000
53.6400 8547.0000 1.0000
53.6600 8244.0000 1.0000
53.6800 8286.0000 1.0000
53.7000 8456.0000 1.0000
53.7200 8271.0000 1.0000
53.7400 8184.0000 1.0000
53.7600 8347.0000 1.0000
53.7800 8214.0000 1.0000
53.8000 8241.0000 1.0000
53.8200 8413.0000 1.0000
53.8400 8282.0000 1.0000
53.8600 8432.0000 1.0000
53.8800 8609.0000 1.0000
53.9000 8592.0000 1.0000
53.9200 8544.0000 1.0000
53.9400 8707.0000 1.0000
53.9600 8997.0000 1.0000
53.9800 9440.0000 1.0000
54.0000 9924.0000 1.0000
54.0200 10399.0000 1.0000
54.0400 11353.0000 1.0000
54.0600 12012.0000 1.0000
54.0800 11928.0000 1.0000
54.1000 11511.0000 1.0000
54.1200 10843.0000 1.0000
54.1400 10369.0000 1.0000
54.1600 10014.0000 1.0000
54.1800 10258.0000 1.0000
54.2000 10140.0000 1.0000
54.2200 10344.0000 1.0000
54.2400 10067.0000 1.0000
54.2600 9581.0000 1.0000
54.2800 9174.0000 1.0000
54.3000 8781.0000 1.0000
54.3200 8506.0000 1.0000
54.3400 8473.0000 1.0000
54.3600 8361.0000 1.0000
54.3800 8051.0000 1.0000
54.4000 7983.0000 1.0000
54.4200 8074.0000 1.0000
54.4400 8050.0000 1.0000
54.4600 8122.0000 1.0000
54.4800 7943.0000 1.0000
54.5000 8085.0000 1.0000
54.5200 7863.0000 1.0000
54.5400 7942.0000 1.0000
54.5600 7906.0000 1.0000
54.5800 7871.0000 1.0000
54.6000 8086.0000 1.0000
54.6200 7950.0000 1.0000
54.6400 7838.0000 1.0000
54.6600 7876.0000 1.0000
54.6800 8009.0000 1.0000
54.7000 7845.0000 1.0000
54.7200 8105.0000 1.0000
54.7400 8116.0000 1.0000
54.7600 8121.0000 1.0000
54.7800 8074.0000 1.0000
54.8000 8315.0000 1.0000
54.8200 8478.0000 1.0000
54.8400 8950.0000 1.0000
54.8600 9140.0000 1.0000
54.8800 9377.0000 1.0000
54.9000 9449.0000 1.0000
54.9200 8855.0000 1.0000
54.9400 8440.0000 1.0000
54.9600 8369.0000 1.0000
54.9800 8452.0000 1.0000
55.0000 8594.0000 1.0000
55.0200 8716.0000 1.0000
55.0400 8823.0000 1.0000
55.0600 8667.0000 1.0000
55.0800 8330.0000 1.0000
55.1000 8211.0000 1.0000
55.1200 7997.0000 1.0000
55.1400 8058.0000 1.0000
55.1600 7956.0000 1.0000
55.1800 8018.0000 1.0000
55.2000 8014.0000 1.0000
55.2200 8137.0000 1.0000
55.2400 8024.0000 1.0000
55.2600 8022.0000 1.0000
55.2800 8077.0000 1.0000
55.3000 8029.0000 1.0000
55.3200 8538.0000 1.0000
55.3400 8503.0000 1.0000
55.3600 8257.0000 1.0000
55.3800 8088.0000 1.0000
55.4000 8029.0000 1.0000
55.4200 8293.0000 1.0000
55.4400 8016.0000 1.0000
55.4600 8154.0000 1.0000
55.4800 8062.0000 1.0000
55.5000 8022.0000 1.0000
55.5200 7916.0000 1.0000
55.5400 7953.0000 1.0000
55.5600 8057.0000 1.0000
55.5800 7885.0000 1.0000
55.6000 7943.0000 1.0000
55.6200 7936.0000 1.0000
55.6400 7767.0000 1.0000
55.6600 7801.0000 1.0000
55.6800 7981.0000 1.0000
55.7000 8080.0000 1.0000
55.7200 7942.0000 1.0000
55.7400 7846.0000 1.0000
55.7600 7939.0000 1.0000
55.7800 7889.0000 1.0000
55.8000 7910.0000 1.0000
55.8200 8075.0000 1.0000
55.8400 7964.0000 1.0000
55.8600 7978.0000 1.0000
55.8800 7914.0000 1.0000
55.9000 7968.0000 1.0000
55.9200 7965.0000 1.0000
55.9400 7852.0000 1.0000
55.9600 7821.0000 1.0000
55.9800 7879.0000 1.0000
56.0000 7790.0000 1.0000
56.0200 7962.0000 1.0000
56.0400 7899.0000 1.0000
56.0600 8010.0000 1.0000
56.0800 8035.0000 1.0000
56.1000 7909.0000 1.0000
56.1200 8017.0000 1.0000
56.1400 7891.0000 1.0000
56.1600 8046.0000 1.0000
56.1800 7971.0000 1.0000
56.2000 7980.0000 1.0000
56.2200 8055.0000 1.0000
56.2400 8045.0000 1.0000
56.2600 8093.0000 1.0000
56.2800 7927.0000 1.0000
56.3000 7849.0000 1.0000
56.3200 7987.0000 1.0000
56.3400 8000.0000 1.0000
56.3600 7941.0000 1.0000
56.3800 7887.0000 1.0000
56.4000 7973.0000 1.0000
56.4200 7983.0000 1.0000
56.4400 7820.0000 1.0000
56.4600 8019.0000 1.0000
56.4800 7961.0000 1.0000
56.5000 7968.0000 1.0000
56.5200 7998.0000 1.0000
56.5400 7857.0000 1.0000
56.5600 7956.0000 1.0000
56.5800 7894.0000 1.0000
56.6000 8021.0000 1.0000
56.6200 7993.0000 1.0000
56.6400 7842.0000 1.0000
56.6600 7902.0000 1.0000
56.6800 8119.0000 1.0000
56.7000 8025.0000 1.0000
56.7200 8159.0000 1.0000
56.7400 8098.0000 1.0000
56.7600 8094.0000 1.0000
56.7800 8099.0000 1.0000
56.8000 8124.0000 1.0000
56.8200 8324.0000 1.0000
56.8400 8268.0000 1.0000
56.8600 8318.0000 1.0000
56.8800 8436.0000 1.0000
56.9000 8449.0000 1.0000
56.9200 8625.0000 1.0000
56.9400 8815.0000 1.0000
56.9600 9071.0000 1.0000
56.9800 9412.0000 1.0000
57.0000 9692.0000 1.0000
57.0200 9921.0000 1.0000
57.0400 9880.0000 1.0000
57.0600 9956.0000 1.0000
57.0800 9678.0000 1.0000
57.1000 9626.0000 1.0000
57.1200 9656.0000 1.0000
57.1400 9930.0000 1.0000
57.1600 9853.0000 1.0000
57.1800 9730.0000 1.0000
57.2000 9691.0000 1.0000
57.2200 9758.0000 1.0000
57.2400 9856.0000 1.0000
57.2600 9505.0000 1.0000
57.2800 9487.0000 1.0000
57.3000 9508.0000 1.0000
57.3200 9577.0000 1.0000
57.3400 9733.0000 1.0000
57.3600 10004.0000 1.0000
57.3800 10347.0000 1.0000
57.4000 10913.0000 1.0000
57.4200 11498.0000 1.0000
57.4400 12313.0000 1.0000
57.4600 13254.0000 1.0000
57.4800 14179.0000 1.0000
57.5000 14608.0000 1.0000
57.5200 14141.0000 1.0000
57.5400 13128.0000 1.0000
57.5600 12403.0000 1.0000
57.5800 11926.0000 1.0000
57.6000 12044.0000 1.0000
57.6200 12255.0000 1.0000
57.6400 12183.0000 1.0000
57.6600 12144.0000 1.0000
57.6800 11367.0000 1.0000
57.7000 10634.0000 1.0000
57.7200 10111.0000 1.0000
57.7400 9759.0000 1.0000
57.7600 9383.0000 1.0000
57.7800 9088.0000 1.0000
57.8000 8929.0000 1.0000
57.8200 8860.0000 1.0000
57.8400 8749.0000 1.0000
57.8600 8445.0000 1.0000
57.8800 8337.0000 1.0000
57.9000 8333.0000 1.0000
57.9200 8195.0000 1.0000
57.9400 8329.0000 1.0000
57.9600 8203.0000 1.0000
57.9800 8188.0000 1.0000
58.0000 8224.0000 1.0000
58.0200 8144.0000 1.0000
58.0400 8070.0000 1.0000
58.0600 8110.0000 1.0000
58.0800 8156.0000 1.0000
58.1000 8017.0000 1.0000
58.1200 8018.0000 1.0000
58.1400 7977.0000 1.0000
58.1600 8123.0000 1.0000
58.1800 8093.0000 1.0000
58.2000 8101.0000 1.0000
58.2200 8153.0000 1.0000
58.2400 7943.0000 1.0000
58.2600 7930.0000 1.0000
58.2800 8136.0000 1.0000
58.3000 8074.0000 1.0000
58.3200 7890.0000 1.0000
58.3400 8050.0000 1.0000
58.3600 7888.0000 1.0000
58.3800 8016.0000 1.0000
58.4000 7805.0000 1.0000
58.4200 7841.0000 1.0000
58.4400 8016.0000 1.0000
58.4600 8009.0000 1.0000
58.4800 7995.0000 1.0000
58.5000 7957.0000 1.0000
58.5200 7967.0000 1.0000
58.5400 8111.0000 1.0000
58.5600 7872.0000 1.0000
58.5800 8018.0000 1.0000
58.6000 8019.0000 1.0000
58.6200 8097.0000 1.0000
58.6400 7832.0000 1.0000
58.6600 7896.0000 1.0000
58.6800 7790.0000 1.0000
58.7000 8020.0000 1.0000
58.7200 7917.0000 1.0000
58.7400 7997.0000 1.0000
58.7600 7816.0000 1.0000
58.7800 8000.0000 1.0000
58.8000 7793.0000 1.0000
58.8200 7921.0000 1.0000
58.8400 7873.0000 1.0000
58.8600 7922.0000 1.0000
58.8800 7882.0000 1.0000
58.9000 7948.0000 1.0000
58.9200 7757.0000 1.0000
58.9400 7910.0000 1.0000
58.9600 7918.0000 1.0000
58.9800 8094.0000 1.0000
59.0000 7958.0000 1.0000
59.0200 7925.0000 1.0000
59.0400 7776.0000 1.0000
59.0600 8162.0000 1.0000
59.0800 7989.0000 1.0000
59.1000 7960.0000 1.0000
59.1200 8020.0000 1.0000
59.1400 7848.0000 1.0000
59.1600 7802.0000 1.0000
59.1800 8092.0000 1.0000
59.2000 7858.0000 1.0000
59.2200 7906.0000 1.0000
59.2400 7853.0000 1.0000
59.2600 7987.0000 1.0000
59.2800 8048.0000 1.0000
59.3000 8008.0000 1.0000
59.3200 7980.0000 1.0000
59.3400 7895.0000 1.0000
59.3600 7813.0000 1.0000
59.3800 7983.0000 1.0000
59.4000 7808.0000 1.0000
59.4200 7965.0000 1.0000
59.4400 7981.0000 1.0000
59.4600 7968.0000 1.0000
59.4800 7857.0000 1.0000
59.5000 7880.0000 1.0000
59.5200 7956.0000 1.0000
59.5400 8016.0000 1.0000
59.5600 7892.0000 1.0000
59.5800 8015.0000 1.0000
59.6000 8187.0000 1.0000
59.6200 8161.0000 1.0000
59.6400 7998.0000 1.0000
59.6600 8174.0000 1.0000
59.6800 8290.0000 1.0000
59.7000 8216.0000 1.0000
59.7200 8184.0000 1.0000
59.7400 7957.0000 1.0000
59.7600 8345.0000 1.0000
59.7800 8228.0000 1.0000
59.8000 8229.0000 1.0000
59.8200 8256.0000 1.0000
59.8400 8330.0000 1.0000
59.8600 8566.0000 1.0000
59.8800 8647.0000 1.0000
59.9000 8937.0000 1.0000
59.9200 9699.0000 1.0000
59.9400 10536.0000 1.0000
59.9600 11413.0000 1.0000
59.9800 11002.0000 1.0000
60.0000 10178.0000 1.0000
60.0200 9104.0000 1.0000
60.0400 8606.0000 1.0000
60.0600 8702.0000 1.0000
60.0800 8872.0000 1.0000
60.1000 9336.0000 1.0000
60.1200 9600.0000 1.0000
60.1400 9804.0000 1.0000
60.1600 9173.0000 1.0000
60.1800 8671.0000 1.0000
60.2000 8219.0000 1.0000
60.2200 8150.0000 1.0000
60.2400 8078.0000 1.0000
60.2600 8067.0000 1.0000
60.2800 8011.0000 1.0000
60.3000 8136.0000 1.0000
60.3200 8074.0000 1.0000
60.3400 8177.0000 1.0000
60.3600 7927.0000 1.0000
60.3800 8078.0000 1.0000
60.4000 8000.0000 1.0000
60.4200 8026.0000 1.0000
60.4400 7990.0000 1.0000
60.4600 7862.0000 1.0000
60.4800 7990.0000 1.0000
60.5000 7948.0000 1.0000
60.5200 8078.0000 1.0000
60.5400 7809.0000 1.0000
60.5600 8021.0000 1.0000
60.5800 8001.0000 1.0000
60.6000 8082.0000 1.0000
60.6200 7884.0000 1.0000
60.6400 7927.0000 1.0000
60.6600 7901.0000 1.0000
60.6800 7867.0000 1.0000
60.7000 7889.0000 1.0000
60.7200 8020.0000 1.0000
60.7400 7931.0000 1.0000
60.7600 7912.0000 1.0000
60.7800 7986.0000 1.0000
60.8000 7981.0000 1.0000
60.8200 7942.0000 1.0000
60.8400 7907.0000 1.0000
60.8600 8044.0000 1.0000
60.8800 8074.0000 1.0000
60.9000 8072.0000 1.0000
60.9200 8004.0000 1.0000
60.9400 8008.0000 1.0000
60.9600 7911.0000 1.0000
60.9800 7937.0000 1.0000
61.0000 8213.0000 1.0000
61.0200 7988.0000 1.0000
61.0400 8020.0000 1.0000
61.0600 8342.0000 1.0000
61.0800 8102.0000 1.0000
61.1000 8164.0000 1.0000
61.1200 8184.0000 1.0000
61.1400 8161.0000 1.0000
61.1600 8132.0000 1.0000
61.1800 8338.0000 1.0000
61.2000 8327.0000 1.0000
61.2200 8275.0000 1.0000
61.2400 8372.0000 1.0000
61.2600 8371.0000 1.0000
61.2800 8387.0000 1.0000
61.3000 8475.0000 1.0000
61.3200 8382.0000 1.0000
61.3400 8394.0000 1.0000
61.3600 8348.0000 1.0000
61.3800 8239.0000 1.0000
61.4000 8218.0000 1.0000
61.4200 8250.0000 1.0000
61.4400 8279.0000 1.0000
61.4600 8113.0000 1.0000
61.4800 8283.0000 1.0000
61.5000 8158.0000 1.0000
61.5200 8039.0000 1.0000
61.5400 8048.0000 1.0000
61.5600 7945.0000 1.0000
61.5800 8013.0000 1.0000
61.6000 7968.0000 1.0000
61.6200 8045.0000 1.0000
61.6400 8102.0000 1.0000
61.6600 8071.0000 1.0000
61.6800 7914.0000 1.0000
61.7000 8049.0000 1.0000
61.7200 7900.0000 1.0000
61.7400 7952.0000 1.0000
61.7600 8020.0000 1.0000
61.7800 7995.0000 1.0000
61.8000 7980.0000 1.0000
61.8200 8019.0000 1.0000
61.8400 8085.0000 1.0000
61.8600 7965.0000 1.0000
61.8800 8045.0000 1.0000
61.9000 7966.0000 1.0000
61.9200 7997.0000 1.0000
61.9400 8090.0000 1.0000
61.9600 7967.0000 1.0000
61.9800 7964.0000 1.0000
62.0000 8067.0000 1.0000
62.0200 8042.0000 1.0000
62.0400 7851.0000 1.0000
62.0600 8198.0000 1.0000
62.0800 8194.0000 1.0000
62.1000 8208.0000 1.0000
62.1200 8044.0000 1.0000
62.1400 8098.0000 1.0000
62.1600 8275.0000 1.0000
62.1800 8241.0000 1.0000
62.2000 8225.0000 1.0000
62.2200 8266.0000 1.0000
62.2400 8330.0000 1.0000
62.2600 8375.0000 1.0000
62.2800 8520.0000 1.0000
62.3000 8529.0000 1.0000
62.3200 8837.0000 1.0000
62.3400 8986.0000 1.0000
62.3600 9272.0000 1.0000
62.3800 9778.0000 1.0000
62.4000 10258.0000 1.0000
62.4200 10735.0000 1.0000
62.4400 10888.0000 1.0000
62.4600 10763.0000 1.0000
62.4800 10469.0000 1.0000
62.5000 10097.0000 1.0000
62.5200 10108.0000 1.0000
62.5400 10236.0000 1.0000
62.5600 10716.0000 1.0000
62.5800 11093.0000 1.0000
62.6000 11744.0000 1.0000
62.6200 11885.0000 1.0000
62.6400 11705.0000 1.0000
62.6600 11242.0000 1.0000
62.6800 10752.0000 1.0000
62.7000 10242.0000 1.0000
62.7200 10111.0000 1.0000
62.7400 10136.0000 1.0000
62.7600 9980.0000 1.0000
62.7800 9925.0000 1.0000
62.8000 9834.0000 1.0000
62.8200 9536.0000 1.0000
62.8400 9637.0000 1.0000
62.8600 9125.0000 1.0000
62.8800 8951.0000 1.0000
62.9000 8715.0000 1.0000
62.9200 8605.0000 1.0000
62.9400 8726.0000 1.0000
62.9600 8508.0000 1.0000
62.9800 8335.0000 1.0000
63.0000 8316.0000 1.0000
63.0200 8206.0000 1.0000
63.0400 8408.0000 1.0000
63.0600 8230.0000 1.0000
63.0800 8196.0000 1.0000
63.1000 8131.0000 1.0000
63.1200 8108.0000 1.0000
63.1400 8164.0000 1.0000
63.1600 8130.0000 1.0000
63.1800 8151.0000 1.0000
63.2000 8004.0000 1.0000
63.2200 8222.0000 1.0000
63.2400 7917.0000 1.0000
63.2600 8003.0000 1.0000
63.2800 7882.0000 1.0000
63.3000 8021.0000 1.0000
63.3200 7954.0000 1.0000
63.3400 7987.0000 1.0000
63.3600 7979.0000 1.0000
63.3800 7947.0000 1.0000
63.4000 8131.0000 1.0000
63.4200 8106.0000 1.0000
63.4400 7940.0000 1.0000
63.4600 8104.0000 1.0000
63.4800 7961.0000 1.0000
63.5000 8047.0000 1.0000
63.5200 7839.0000 1.0000
63.5400 7948.0000 1.0000
63.5600 8068.0000 1.0000
63.5800 7994.0000 1.0000
63.6000 7928.0000 1.0000
63.6200 7979.0000 1.0000
63.6400 8111.0000 1.0000
63.6600 8210.0000 1.0000
63.6800 8075.0000 1.0000
63.7000 7989.0000 1.0000
63.7200 8149.0000 1.0000
63.7400 8190.0000 1.0000
63.7600 8153.0000 1.0000
63.7800 8205.0000 1.0000
63.8000 8327.0000 1.0000
63.8200 8314.0000 1.0000
63.8400 8347.0000 1.0000
63.8600 8593.0000 1.0000
63.8800 8698.0000 1.0000
63.9000 8780.0000 1.0000
63.9200 9008.0000 1.0000
63.9400 9632.0000 1.0000
63.9600 10002.0000 1.0000
63.9800 10334.0000 1.0000
64.0000 10797.0000 1.0000
64.0200 11008.0000 1.0000
64.0400 10912.0000 1.0000
64.0600 10347.0000 1.0000
64.0800 9581.0000 1.0000
64.1000 9205.0000 1.0000
64.1200 9116.0000 1.0000
64.1400 9449.0000 1.0000
64.1600 9420.0000 1.0000
64.1800 9584.0000 1.0000
64.2000 9623.0000 1.0000
64.2200 9433.0000 1.0000
64.2400 9176.0000 1.0000
64.2600 8694.0000 1.0000
64.2800 8560.0000 1.0000
64.3000 8179.0000 1.0000
64.3200 8148.0000 1.0000
64.3400 8231.0000 1.0000
64.3600 8190.0000 1.0000
64.3800 8181.0000 1.0000
64.4000 8127.0000 1.0000
64.4200 8027.0000 1.0000
64.4400 7985.0000 1.0000
64.4600 8045.0000 1.0000
64.4800 8064.0000 1.0000
64.5000 7907.0000 1.0000
64.5200 8162.0000 1.0000
64.5400 7970.0000 1.0000
64.5600 8008.0000 1.0000
64.5800 8024.0000 1.0000
64.6000 8023.0000 1.0000
64.6200 7984.0000 1.0000
64.6400 7930.0000 1.0000
64.6600 7863.0000 1.0000
64.6800 7966.0000 1.0000
64.7000 8048.0000 1.0000
64.7200 7967.0000 1.0000
64.7400 7787.0000 1.0000
64.7600 7901.0000 1.0000
64.7800 7977.0000 1.0000
64.8000 7966.0000 1.0000
64.8200 8065.0000 1.0000
64.8400 8047.0000 1.0000
64.8600 8147.0000 1.0000
64.8800 7920.0000 1.0000
64.9000 7967.0000 1.0000
64.9200 7888.0000 1.0000
64.9400 7924.0000 1.0000
64.9600 7786.0000 1.0000
64.9800 7906.0000 1.0000
65.0000 8002.0000 1.0000
65.0200 7999.0000 1.0000
65.0400 7942.0000 1.0000
65.0600 8022.0000 1.0000
65.0800 7921.0000 1.0000
65.1000 7906.0000 1.0000
65.1200 7904.0000 1.0000
65.1400 7856.0000 1.0000
65.1600 7923.0000 1.0000
65.1800 8151.0000 1.0000
65.2000 7877.0000 1.0000
65.2200 7834.0000 1.0000
65.2400 7947.0000 1.0000
65.2600 7830.0000 1.0000
65.2800 7928.0000 1.0000
65.3000 7893.0000 1.0000
65.3200 7985.0000 1.0000
65.3400 8160.0000 1.0000
65.3600 7884.0000 1.0000
65.3800 7962.0000 1.0000
65.4000 8162.0000 1.0000
65.4200 7861.0000 1.0000
65.4400 7954.0000 1.0000
65.4600 7922.0000 1.0000
65.4800 7885.0000 1.0000
65.5000 8031.0000 1.0000
65.5200 7908.0000 1.0000
65.5400 7748.0000 1.0000
65.5600 7948.0000 1.0000
65.5800 7945.0000 1.0000
65.6000 8042.0000 1.0000
65.6200 8112.0000 1.0000
65.6400 8087.0000 1.0000
65.6600 8169.0000 1.0000
65.6800 8164.0000 1.0000
65.7000 8029.0000 1.0000
65.7200 8062.0000 1.0000
65.7400 8047.0000 1.0000
65.7600 8121.0000 1.0000
65.7800 8358.0000 1.0000
65.8000 8279.0000 1.0000
65.8200 8117.0000 1.0000
65.8400 8188.0000 1.0000
65.8600 8064.0000 1.0000
65.8800 8084.0000 1.0000
65.9000 8093.0000 1.0000
65.9200 7954.0000 1.0000
65.9400 8023.0000 1.0000
65.9600 8095.0000 1.0000
65.9800 8145.0000 1.0000
66.0000 8199.0000 1.0000
66.0200 8208.0000 1.0000
66.0400 8121.0000 1.0000
66.0600 8028.0000 1.0000
66.0800 8021.0000 1.0000
66.1000 8075.0000 1.0000
66.1200 8021.0000 1.0000
66.1400 7970.0000 1.0000
66.1600 8202.0000 1.0000
66.1800 8177.0000 1.0000
66.2000 8251.0000 1.0000
66.2200 8180.0000 1.0000
66.2400 8194.0000 1.0000
66.2600 8315.0000 1.0000
66.2800 8186.0000 1.0000
66.3000 8370.0000 1.0000
66.3200 8394.0000 1.0000
66.3400 8473.0000 1.0000
66.3600 8441.0000 1.0000
66.3800 8546.0000 1.0000
66.4000 8810.0000 1.0000
66.4200 9001.0000 1.0000
66.4400 9289.0000 1.0000
66.4600 9592.0000 1.0000
66.4800 9957.0000 1.0000
66.5000 10202.0000 1.0000
66.5200 10208.0000 1.0000
66.5400 9893.0000 1.0000
66.5600 9637.0000 1.0000
66.5800 9249.0000 1.0000
66.6000 9178.0000 1.0000
66.6200 9190.0000 1.0000
66.6400 9193.0000 1.0000
66.6600 9145.0000 1.0000
66.6800 9266.0000 1.0000
66.7000 9342.0000 1.0000
66.7200 9154.0000 1.0000
66.7400 8799.0000 1.0000
66.7600 8744.0000 1.0000
66.7800 8530.0000 1.0000
66.8000 8289.0000 1.0000
66.8200 8490.0000 1.0000
66.8400 8279.0000 1.0000
66.8600 8334.0000 1.0000
66.8800 8157.0000 1.0000
66.9000 8153.0000 1.0000
66.9200 8163.0000 1.0000
66.9400 8084.0000 1.0000
66.9600 8208.0000 1.0000
66.9800 8230.0000 1.0000
67.0000 8000.0000 1.0000
67.0200 8149.0000 1.0000
67.0400 8098.0000 1.0000
67.0600 8093.0000 1.0000
67.0800 8127.0000 1.0000
67.1000 7989.0000 1.0000
67.1200 8081.0000 1.0000
67.1400 8269.0000 1.0000
67.1600 8294.0000 1.0000
67.1800 7905.0000 1.0000
67.2000 8129.0000 1.0000
67.2200 8071.0000 1.0000
67.2400 8089.0000 1.0000
67.2600 7901.0000 1.0000
67.2800 8032.0000 1.0000
67.3000 8038.0000 1.0000
67.3200 8099.0000 1.0000
67.3400 8083.0000 1.0000
67.3600 8149.0000 1.0000
67.3800 8023.0000 1.0000
67.4000 8169.0000 1.0000
67.4200 7998.0000 1.0000
67.4400 8031.0000 1.0000
67.4600 7994.0000 1.0000
67.4800 8145.0000 1.0000
67.5000 8233.0000 1.0000
67.5200 8016.0000 1.0000
67.5400 8151.0000 1.0000
67.5600 8218.0000 1.0000
67.5800 8246.0000 1.0000
67.6000 8007.0000 1.0000
67.6200 8207.0000 1.0000
67.6400 8505.0000 1.0000
67.6600 8552.0000 1.0000
67.6800 8785.0000 1.0000
67.7000 9179.0000 1.0000
67.7200 9699.0000 1.0000
67.7400 10252.0000 1.0000
67.7600 10274.0000 1.0000
67.7800 9251.0000 1.0000
67.8000 8808.0000 1.0000
67.8200 8779.0000 1.0000
67.8400 8752.0000 1.0000
67.8600 8598.0000 1.0000
67.8800 8758.0000 1.0000
67.9000 9112.0000 1.0000
67.9200 9462.0000 1.0000
67.9400 9521.0000 1.0000
67.9600 9425.0000 1.0000
67.9800 9300.0000 1.0000
68.0000 8940.0000 1.0000
68.0200 9308.0000 1.0000
68.0400 9160.0000 1.0000
68.0600 9677.0000 1.0000
68.0800 10009.0000 1.0000
68.1000 10745.0000 1.0000
68.1200 11815.0000 1.0000
68.1400 12556.0000 1.0000
68.1600 12827.0000 1.0000
68.1800 12750.0000 1.0000
68.2000 12700.0000 1.0000
68.2200 12169.0000 1.0000
68.2400 11574.0000 1.0000
68.2600 11494.0000 1.0000
68.2800 12125.0000 1.0000
68.3000 13680.0000 1.0000
68.3200 14610.0000 1.0000
68.3400 13472.0000 1.0000
68.3600 12331.0000 1.0000
68.3800 11146.0000 1.0000
68.4000 10847.0000 1.0000
68.4200 10328.0000 1.0000
68.4400 10091.0000 1.0000
68.4600 9827.0000 1.0000
68.4800 10116.0000 1.0000
68.5000 10671.0000 1.0000
68.5200 10584.0000 1.0000
68.5400 9753.0000 1.0000
68.5600 8867.0000 1.0000
68.5800 8609.0000 1.0000
68.6000 8692.0000 1.0000
68.6200 8404.0000 1.0000
68.6400 8354.0000 1.0000
68.6600 8100.0000 1.0000
68.6800 8353.0000 1.0000
68.7000 8379.0000 1.0000
68.7200 8152.0000 1.0000
68.7400 8257.0000 1.0000
68.7600 8229.0000 1.0000
68.7800 8071.0000 1.0000
68.8000 8106.0000 1.0000
68.8200 8070.0000 1.0000
68.8400 7953.0000 1.0000
68.8600 8087.0000 1.0000
68.8800 8114.0000 1.0000
68.9000 7893.0000 1.0000
68.9200 8106.0000 1.0000
68.9400 8072.0000 1.0000
68.9600 8027.0000 1.0000
68.9800 8121.0000 1.0000
69.0000 7989.0000 1.0000
69.0200 8006.0000 1.0000
69.0400 7985.0000 1.0000
69.0600 8077.0000 1.0000
69.0800 7928.0000 1.0000
69.1000 7920.0000 1.0000
69.1200 7972.0000 1.0000
69.1400 7985.0000 1.0000
69.1600 8107.0000 1.0000
69.1800 8185.0000 1.0000
69.2000 8054.0000 1.0000
69.2200 7994.0000 1.0000
69.2400 8053.0000 1.0000
69.2600 7994.0000 1.0000
69.2800 7924.0000 1.0000
69.3000 8009.0000 1.0000
69.3200 8200.0000 1.0000
69.3400 8170.0000 1.0000
69.3600 8084.0000 1.0000
69.3800 8130.0000 1.0000
69.4000 8021.0000 1.0000
69.4200 8149.0000 1.0000
69.4400 8159.0000 1.0000
69.4600 8141.0000 1.0000
69.4800 8044.0000 1.0000
69.5000 8063.0000 1.0000
69.5200 8224.0000 1.0000
69.5400 8204.0000 1.0000
69.5600 8326.0000 1.0000
69.5800 8144.0000 1.0000
69.6000 8010.0000 1.0000
69.6200 8287.0000 1.0000
69.6400 8185.0000 1.0000
69.6600 8058.0000 1.0000
69.6800 8204.0000 1.0000
69.7000 8015.0000 1.0000
69.7200 8093.0000 1.0000
69.7400 8128.0000 1.0000
69.7600 8227.0000 1.0000
69.7800 8239.0000 1.0000
69.8000 8176.0000 1.0000
69.8200 8108.0000 1.0000
69.8400 8068.0000 1.0000
69.8600 8139.0000 1.0000
69.8800 8017.0000 1.0000
69.9000 7953.0000 1.0000
69.9200 8113.0000 1.0000
69.9400 7955.0000 1.0000
69.9600 8022.0000 1.0000
69.9800 8088.0000 1.0000
70.0000 7985.0000 1.0000
70.0200 8117.0000 1.0000
70.0400 7970.0000 1.0000
70.0600 8202.0000 1.0000
70.0800 8075.0000 1.0000
70.1000 8011.0000 1.0000
70.1200 8081.0000 1.0000
70.1400 8006.0000 1.0000
70.1600 7986.0000 1.0000
70.1800 8017.0000 1.0000
70.2000 8192.0000 1.0000
70.2200 7946.0000 1.0000
70.2400 7934.0000 1.0000
70.2600 8111.0000 1.0000
70.2800 7930.0000 1.0000
70.3000 8065.0000 1.0000
70.3200 7989.0000 1.0000
70.3400 8090.0000 1.0000
70.3600 8109.0000 1.0000
70.3800 8074.0000 1.0000
70.4000 7956.0000 1.0000
70.4200 7968.0000 1.0000
70.4400 8154.0000 1.0000
70.4600 8004.0000 1.0000
70.4800 8215.0000 1.0000
70.5000 8111.0000 1.0000
70.5200 7957.0000 1.0000
70.5400 7955.0000 1.0000
70.5600 8114.0000 1.0000
70.5800 8002.0000 1.0000
70.6000 8151.0000 1.0000
70.6200 8105.0000 1.0000
70.6400 8154.0000 1.0000
70.6600 8100.0000 1.0000
70.6800 7918.0000 1.0000
70.7000 8045.0000 1.0000
70.7200 8030.0000 1.0000
70.7400 8029.0000 1.0000
70.7600 8010.0000 1.0000
70.7800 7928.0000 1.0000
70.8000 7993.0000 1.0000
70.8200 7879.0000 1.0000
70.8400 8056.0000 1.0000
70.8600 8048.0000 1.0000
70.8800 8120.0000 1.0000
70.9000 7979.0000 1.0000
70.9200 7957.0000 1.0000
70.9400 8108.0000 1.0000
70.9600 8132.0000 1.0000
70.9800 8206.0000 1.0000
71.0000 8063.0000 1.0000
71.0200 8124.0000 1.0000
71.0400 8015.0000 1.0000
71.0600 8100.0000 1.0000
71.0800 8188.0000 1.0000
71.1000 8083.0000 1.0000
71.1200 8130.0000 1.0000
71.1400 8179.0000 1.0000
71.1600 8047.0000 1.0000
71.1800 8165.0000 1.0000
71.2000 8268.0000 1.0000
71.2200 8220.0000 1.0000
71.2400 8238.0000 1.0000
71.2600 8075.0000 1.0000
71.2800 8044.0000 1.0000
71.3000 8314.0000 1.0000
71.3200 7943.0000 1.0000
71.3400 8119.0000 1.0000
71.3600 8085.0000 1.0000
71.3800 8150.0000 1.0000
71.4000 8127.0000 1.0000
71.4200 8230.0000 1.0000
71.4400 8096.0000 1.0000
71.4600 7927.0000 1.0000
71.4800 7949.0000 1.0000
71.5000 8241.0000 1.0000
71.5200 8205.0000 1.0000
71.5400 8127.0000 1.0000
71.5600 8052.0000 1.0000
71.5800 8064.0000 1.0000
71.6000 7847.0000 1.0000
71.6200 7999.0000 1.0000
71.6400 8016.0000 1.0000
71.6600 7977.0000 1.0000
71.6800 7837.0000 1.0000
71.7000 8054.0000 1.0000
71.7200 8176.0000 1.0000
71.7400 8240.0000 1.0000
71.7600 8187.0000 1.0000
71.7800 8374.0000 1.0000
71.8000 8185.0000 1.0000
71.8200 8431.0000 1.0000
71.8400 8218.0000 1.0000
71.8600 8608.0000 1.0000
71.8800 8492.0000 1.0000
71.9000 8591.0000 1.0000
71.9200 8964.0000 1.0000
71.9400 8888.0000 1.0000
71.9600 8905.0000 1.0000
71.9800 8792.0000 1.0000
72.0000 8804.0000 1.0000
72.0200 8587.0000 1.0000
72.0400 8338.0000 1.0000
72.0600 8337.0000 1.0000
72.0800 8487.0000 1.0000
72.1000 8361.0000 1.0000
72.1200 8469.0000 1.0000
72.1400 8543.0000 1.0000
72.1600 8545.0000 1.0000
72.1800 8353.0000 1.0000
72.2000 8439.0000 1.0000
72.2200 8221.0000 1.0000
72.2400 8328.0000 1.0000
72.2600 8280.0000 1.0000
72.2800 8330.0000 1.0000
72.3000 8284.0000 1.0000
72.3200 8281.0000 1.0000
72.3400 8109.0000 1.0000
72.3600 8077.0000 1.0000
72.3800 8062.0000 1.0000
72.4000 8155.0000 1.0000
72.4200 8219.0000 1.0000
72.4400 7863.0000 1.0000
72.4600 8170.0000 1.0000
72.4800 8237.0000 1.0000
72.5000 8204.0000 1.0000
72.5200 8004.0000 1.0000
72.5400 8094.0000 1.0000
72.5600 8125.0000 1.0000
72.5800 7901.0000 1.0000
72.6000 8073.0000 1.0000
72.6200 7909.0000 1.0000
72.6400 8019.0000 1.0000
72.6600 8048.0000 1.0000
72.6800 8036.0000 1.0000
72.7000 8051.0000 1.0000
72.7200 7945.0000 1.0000
72.7400 8101.0000 1.0000
72.7600 7968.0000 1.0000
72.7800 7987.0000 1.0000
72.8000 8063.0000 1.0000
72.8200 8095.0000 1.0000
72.8400 8018.0000 1.0000
72.8600 7899.0000 1.0000
72.8800 8149.0000 1.0000
72.9000 8011.0000 1.0000
72.9200 8074.0000 1.0000
72.9400 8027.0000 1.0000
72.9600 8071.0000 1.0000
72.9800 8117.0000 1.0000
73.0000 7991.0000 1.0000
73.0200 8013.0000 1.0000
73.0400 8103.0000 1.0000
73.0600 7969.0000 1.0000
73.0800 7950.0000 1.0000
73.1000 8006.0000 1.0000
73.1200 8002.0000 1.0000
73.1400 8119.0000 1.0000
73.1600 8189.0000 1.0000
73.1800 8007.0000 1.0000
73.2000 8175.0000 1.0000
73.2200 8264.0000 1.0000
73.2400 7979.0000 1.0000
73.2600 8089.0000 1.0000
73.2800 8157.0000 1.0000
73.3000 8251.0000 1.0000
73.3200 8179.0000 1.0000
73.3400 8088.0000 1.0000
73.3600 8183.0000 1.0000
73.3800 8201.0000 1.0000
73.4000 8273.0000 1.0000
73.4200 8422.0000 1.0000
73.4400 8761.0000 1.0000
73.4600 9265.0000 1.0000
73.4800 9391.0000 1.0000
73.5000 8882.0000 1.0000
73.5200 8394.0000 1.0000
73.5400 8237.0000 1.0000
73.5600 8121.0000 1.0000
73.5800 8164.0000 1.0000
73.6000 8237.0000 1.0000
73.6200 8313.0000 1.0000
73.6400 8247.0000 1.0000
73.6600 8559.0000 1.0000
73.6800 8776.0000 1.0000
73.7000 8539.0000 1.0000
73.7200 8456.0000 1.0000
73.7400 8173.0000 1.0000
73.7600 7975.0000 1.0000
73.7800 8082.0000 1.0000
73.8000 8142.0000 1.0000
73.8200 8105.0000 1.0000
73.8400 8176.0000 1.0000
73.8600 8092.0000 1.0000
73.8800 8086.0000 1.0000
73.9000 7988.0000 1.0000
73.9200 8146.0000 1.0000
73.9400 8208.0000 1.0000
73.9600 8168.0000 1.0000
73.9800 8284.0000 1.0000
74.0000 8185.0000 1.0000
74.0200 8314.0000 1.0000
74.0400 8422.0000 1.0000
74.0600 8388.0000 1.0000
74.0800 8535.0000 1.0000
74.1000 8519.0000 1.0000
74.1200 8540.0000 1.0000
74.1400 8559.0000 1.0000
74.1600 8386.0000 1.0000
74.1800 8507.0000 1.0000
74.2000 8436.0000 1.0000
74.2200 8246.0000 1.0000
74.2400 8180.0000 1.0000
74.2600 8527.0000 1.0000
74.2800 8311.0000 1.0000
74.3000 8388.0000 1.0000
74.3200 8359.0000 1.0000
74.3400 8234.0000 1.0000
74.3600 8375.0000 1.0000
74.3800 8376.0000 1.0000
74.4000 8194.0000 1.0000
74.4200 8210.0000 1.0000
74.4400 8345.0000 1.0000
74.4600 8290.0000 1.0000
74.4800 8244.0000 1.0000
74.5000 8290.0000 1.0000
74.5200 8313.0000 1.0000
74.5400 8220.0000 1.0000
74.5600 8350.0000 1.0000
74.5800 8191.0000 1.0000
74.6000 8046.0000 1.0000
74.6200 8135.0000 1.0000
74.6400 8084.0000 1.0000
74.6600 8093.0000 1.0000
74.6800 8028.0000 1.0000
74.7000 8107.0000 1.0000
74.7200 8235.0000 1.0000
74.7400 7978.0000 1.0000
74.7600 8193.0000 1.0000
74.7800 7945.0000 1.0000
74.8000 8041.0000 1.0000
74.8200 8099.0000 1.0000
74.8400 8096.0000 1.0000
74.8600 8031.0000 1.0000
74.8800 8061.0000 1.0000
74.9000 8040.0000 1.0000
74.9200 7911.0000 1.0000
74.9400 7924.0000 1.0000
74.9600 8089.0000 1.0000
74.9800 8212.0000 1.0000
75.0000 8106.0000 1.0000
75.0200 8193.0000 1.0000
75.0400 8213.0000 1.0000
75.0600 8316.0000 1.0000
75.0800 8280.0000 1.0000
75.1000 8257.0000 1.0000
75.1200 8440.0000 1.0000
75.1400 8242.0000 1.0000
75.1600 8016.0000 1.0000
75.1800 8182.0000 1.0000
75.2000 8182.0000 1.0000
75.2200 8195.0000 1.0000
75.2400 8114.0000 1.0000
75.2600 8327.0000 1.0000
75.2800 8280.0000 1.0000
75.3000 8211.0000 1.0000
75.3200 8319.0000 1.0000
75.3400 8313.0000 1.0000
75.3600 8408.0000 1.0000
75.3800 8453.0000 1.0000
75.4000 8666.0000 1.0000
75.4200 8594.0000 1.0000
75.4400 8773.0000 1.0000
75.4600 8667.0000 1.0000
75.4800 8697.0000 1.0000
75.5000 8558.0000 1.0000
75.5200 8364.0000 1.0000
75.5400 8395.0000 1.0000
75.5600 8520.0000 1.0000
75.5800 8591.0000 1.0000
75.6000 8621.0000 1.0000
75.6200 8650.0000 1.0000
75.6400 8972.0000 1.0000
75.6600 9301.0000 1.0000
75.6800 9233.0000 1.0000
75.7000 8692.0000 1.0000
75.7200 8624.0000 1.0000
75.7400 8317.0000 1.0000
75.7600 8383.0000 1.0000
75.7800 8177.0000 1.0000
75.8000 8357.0000 1.0000
75.8200 8210.0000 1.0000
75.8400 8266.0000 1.0000
75.8600 8487.0000 1.0000
75.8800 8373.0000 1.0000
75.9000 8548.0000 1.0000
75.9200 8303.0000 1.0000
75.9400 8103.0000 1.0000
75.9600 8105.0000 1.0000
75.9800 8130.0000 1.0000
76.0000 8095.0000 1.0000
76.0200 7999.0000 1.0000
76.0400 7969.0000 1.0000
76.0600 8175.0000 1.0000
76.0800 8090.0000 1.0000
76.1000 8078.0000 1.0000
76.1200 7959.0000 1.0000
76.1400 8219.0000 1.0000
76.1600 8139.0000 1.0000
76.1800 8127.0000 1.0000
76.2000 8115.0000 1.0000
76.2200 8169.0000 1.0000
76.2400 8164.0000 1.0000
76.2600 8047.0000 1.0000
76.2800 8121.0000 1.0000
76.3000 8118.0000 1.0000
76.3200 8087.0000 1.0000
76.3400 8074.0000 1.0000
76.3600 8141.0000 1.0000
76.3800 8030.0000 1.0000
76.4000 8118.0000 1.0000
76.4200 8087.0000 1.0000
76.4400 8122.0000 1.0000
76.4600 7931.0000 1.0000
76.4800 8202.0000 1.0000
76.5000 8139.0000 1.0000
76.5200 8095.0000 1.0000
76.5400 8199.0000 1.0000
76.5600 8177.0000 1.0000
76.5800 8300.0000 1.0000
76.6000 8250.0000 1.0000
76.6200 7948.0000 1.0000
76.6400 8168.0000 1.0000
76.6600 8194.0000 1.0000
76.6800 8123.0000 1.0000
76.7000 8259.0000 1.0000
76.7200 8380.0000 1.0000
76.7400 8347.0000 1.0000
76.7600 8434.0000 1.0000
76.7800 8421.0000 1.0000
76.8000 8643.0000 1.0000
76.8200 8819.0000 1.0000
76.8400 9156.0000 1.0000
76.8600 9050.0000 1.0000
76.8800 9043.0000 1.0000
76.9000 8992.0000 1.0000
76.9200 8705.0000 1.0000
76.9400 8661.0000 1.0000
76.9600 8567.0000 1.0000
76.9800 8541.0000 1.0000
77.0000 8551.0000 1.0000
77.0200 8424.0000 1.0000
77.0400 8587.0000 1.0000
77.0600 8669.0000 1.0000
77.0800 8674.0000 1.0000
77.1000 8886.0000 1.0000
77.1200 8775.0000 1.0000
77.1400 8507.0000 1.0000
77.1600 8529.0000 1.0000
77.1800 8574.0000 1.0000
77.2000 8784.0000 1.0000
77.2200 8681.0000 1.0000
77.2400 8638.0000 1.0000
77.2600 8483.0000 1.0000
77.2800 8577.0000 1.0000
77.3000 8231.0000 1.0000
77.3200 8429.0000 1.0000
77.3400 8269.0000 1.0000
77.3600 8291.0000 1.0000
77.3800 8360.0000 1.0000
77.4000 8381.0000 1.0000
77.4200 8346.0000 1.0000
77.4400 8395.0000 1.0000
77.4600 8145.0000 1.0000
77.4800 8376.0000 1.0000
77.5000 8303.0000 1.0000
77.5200 8493.0000 1.0000
77.5400 8274.0000 1.0000
77.5600 8253.0000 1.0000
77.5800 8472.0000 1.0000
77.6000 8452.0000 1.0000
77.6200 8593.0000 1.0000
77.6400 8757.0000 1.0000
77.6600 8976.0000 1.0000
77.6800 9121.0000 1.0000
77.7000 8831.0000 1.0000
77.7200 8656.0000 1.0000
77.7400 8736.0000 1.0000
77.7600 8528.0000 1.0000
77.7800 8376.0000 1.0000
77.8000 8523.0000 1.0000
77.8200 8250.0000 1.0000
77.8400 8363.0000 1.0000
77.8600 8229.0000 1.0000
77.8800 8494.0000 1.0000
77.9000 8805.0000 1.0000
77.9200 8632.0000 1.0000
77.9400 8501.0000 1.0000
77.9600 8378.0000 1.0000
77.9800 8208.0000 1.0000
78.0000 8189.0000 1.0000
78.0200 8080.0000 1.0000
78.0400 8136.0000 1.0000
78.0600 8204.0000 1.0000
78.0800 8227.0000 1.0000
78.1000 8094.0000 1.0000
78.1200 8055.0000 1.0000
78.1400 8058.0000 1.0000
78.1600 8144.0000 1.0000
78.1800 8145.0000 1.0000
78.2000 8084.0000 1.0000
78.2200 8100.0000 1.0000
78.2400 8012.0000 1.0000
78.2600 8109.0000 1.0000
78.2800 8176.0000 1.0000
78.3000 8133.0000 1.0000
78.3200 8114.0000 1.0000
78.3400 8068.0000 1.0000
78.3600 8261.0000 1.0000
78.3800 8029.0000 1.0000
78.4000 8042.0000 1.0000
78.4200 8126.0000 1.0000
78.4400 8055.0000 1.0000
78.4600 8146.0000 1.0000
78.4800 8159.0000 1.0000
78.5000 8168.0000 1.0000
78.5200 8241.0000 1.0000
78.5400 7997.0000 1.0000
78.5600 8204.0000 1.0000
78.5800 8127.0000 1.0000
78.6000 8113.0000 1.0000
78.6200 8152.0000 1.0000
78.6400 8141.0000 1.0000
78.6600 8073.0000 1.0000
78.6800 8194.0000 1.0000
78.7000 8177.0000 1.0000
78.7200 8138.0000 1.0000
78.7400 8059.0000 1.0000
78.7600 8084.0000 1.0000
78.7800 8139.0000 1.0000
78.8000 8096.0000 1.0000
78.8200 8169.0000 1.0000
78.8400 8176.0000 1.0000
78.8600 8232.0000 1.0000
78.8800 8333.0000 1.0000
78.9000 8096.0000 1.0000
78.9200 8303.0000 1.0000
78.9400 8228.0000 1.0000
78.9600 8140.0000 1.0000
78.9800 8160.0000 1.0000
79.0000 8104.0000 1.0000
79.0200 8248.0000 1.0000
79.0400 8316.0000 1.0000
79.0600 8242.0000 1.0000
79.0800 8161.0000 1.0000
79.1000 8236.0000 1.0000
79.1200 8196.0000 1.0000
79.1400 8125.0000 1.0000
79.1600 8226.0000 1.0000
79.1800 8054.0000 1.0000
79.2000 8271.0000 1.0000
79.2200 8188.0000 1.0000
79.2400 8268.0000 1.0000
79.2600 8131.0000 1.0000
79.2800 8020.0000 1.0000
79.3000 8230.0000 1.0000
79.3200 8114.0000 1.0000
79.3400 8196.0000 1.0000
79.3600 8184.0000 1.0000
79.3800 8144.0000 1.0000
79.4000 8291.0000 1.0000
79.4200 8222.0000 1.0000
79.4400 8183.0000 1.0000
79.4600 8281.0000 1.0000
79.4800 8068.0000 1.0000
79.5000 8136.0000 1.0000
79.5200 8091.0000 1.0000
79.5400 8178.0000 1.0000
79.5600 8137.0000 1.0000
79.5800 8149.0000 1.0000
79.6000 8162.0000 1.0000
79.6200 8082.0000 1.0000
79.6400 8168.0000 1.0000
79.6600 8060.0000 1.0000
79.6800 8306.0000 1.0000
79.7000 8233.0000 1.0000
79.7200 8285.0000 1.0000
79.7400 8100.0000 1.0000
79.7600 8259.0000 1.0000
79.7800 8185.0000 1.0000
79.8000 8370.0000 1.0000
79.8200 8442.0000 1.0000
79.8400 8640.0000 1.0000
79.8600 8866.0000 1.0000
79.8800 9186.0000 1.0000
79.9000 9211.0000 1.0000
79.9200 8821.0000 1.0000
79.9400 8618.0000 1.0000
79.9600 8577.0000 1.0000
79.9800 8456.0000 1.0000
80.0000 8540.0000 1.0000
80.0200 8663.0000 1.0000
80.0400 8619.0000 1.0000
80.0600 8734.0000 1.0000
80.0800 8533.0000 1.0000
80.1000 8590.0000 1.0000
80.1200 8576.0000 1.0000
80.1400 8813.0000 1.0000
80.1600 8642.0000 1.0000
80.1800 8395.0000 1.0000
80.2000 8196.0000 1.0000
80.2200 8281.0000 1.0000
80.2400 8284.0000 1.0000
80.2600 8399.0000 1.0000
80.2800 8384.0000 1.0000
80.3000 8358.0000 1.0000
80.3200 8501.0000 1.0000
80.3400 8294.0000 1.0000
80.3600 8385.0000 1.0000
80.3800 8197.0000 1.0000
80.4000 8248.0000 1.0000
80.4200 8199.0000 1.0000
80.4400 8329.0000 1.0000
80.4600 8231.0000 1.0000
80.4800 8216.0000 1.0000
80.5000 8185.0000 1.0000
80.5200 8378.0000 1.0000
80.5400 8431.0000 1.0000
80.5600 8439.0000 1.0000
80.5800 8466.0000 1.0000
80.6000 8545.0000 1.0000
80.6200 8696.0000 1.0000
80.6400 8520.0000 1.0000
80.6600 8698.0000 1.0000
80.6800 8898.0000 1.0000
80.7000 8930.0000 1.0000
80.7200 8650.0000 1.0000
80.7400 8888.0000 1.0000
80.7600 8566.0000 1.0000
80.7800 8644.0000 1.0000
80.8000 8481.0000 1.0000
80.8200 8385.0000 1.0000
80.8400 8463.0000 1.0000
80.8600 8445.0000 1.0000
80.8800 8626.0000 1.0000
80.9000 8496.0000 1.0000
80.9200 8579.0000 1.0000
80.9400 8562.0000 1.0000
80.9600 8480.0000 1.0000
80.9800 8584.0000 1.0000
81.0000 8306.0000 1.0000
81.0200 8401.0000 1.0000
81.0400 8383.0000 1.0000
81.0600 8346.0000 1.0000
81.0800 8428.0000 1.0000
81.1000 8492.0000 1.0000
81.1200 8679.0000 1.0000
81.1400 8935.0000 1.0000
81.1600 8931.0000 1.0000
81.1800 8947.0000 1.0000
81.2000 8640.0000 1.0000
81.2200 8369.0000 1.0000
81.2400 8246.0000 1.0000
81.2600 8372.0000 1.0000
81.2800 8233.0000 1.0000
81.3000 8299.0000 1.0000
81.3200 8329.0000 1.0000
81.3400 8469.0000 1.0000
81.3600 8574.0000 1.0000
81.3800 8606.0000 1.0000
81.4000 8779.0000 1.0000
81.4200 8879.0000 1.0000
81.4400 8876.0000 1.0000
81.4600 8998.0000 1.0000
81.4800 9120.0000 1.0000
81.5000 9080.0000 1.0000
81.5200 8911.0000 1.0000
81.5400 8428.0000 1.0000
81.5600 8352.0000 1.0000
81.5800 8311.0000 1.0000
81.6000 8309.0000 1.0000
81.6200 8485.0000 1.0000
81.6400 8283.0000 1.0000
81.6600 8137.0000 1.0000
81.6800 8432.0000 1.0000
81.7000 8395.0000 1.0000
81.7200 8608.0000 1.0000
81.7400 8550.0000 1.0000
81.7600 8500.0000 1.0000
81.7800 8428.0000 1.0000
81.8000 8229.0000 1.0000
81.8200 8060.0000 1.0000
81.8400 8142.0000 1.0000
81.8600 8098.0000 1.0000
81.8800 8221.0000 1.0000
81.9000 8123.0000 1.0000
81.9200 8099.0000 1.0000
81.9400 7961.0000 1.0000
81.9600 8225.0000 1.0000
81.9800 8351.0000 1.0000
82.0000 8198.0000 1.0000
82.0200 8207.0000 1.0000
82.0400 8179.0000 1.0000
82.0600 8228.0000 1.0000
82.0800 8040.0000 1.0000
82.1000 8189.0000 1.0000
82.1200 8178.0000 1.0000
82.1400 8091.0000 1.0000
82.1600 8000.0000 1.0000
82.1800 8219.0000 1.0000
82.2000 8251.0000 1.0000
82.2200 8191.0000 1.0000
82.2400 8214.0000 1.0000
82.2600 8040.0000 1.0000
82.2800 8078.0000 1.0000
82.3000 8073.0000 1.0000
82.3200 8085.0000 1.0000
82.3400 8231.0000 1.0000
82.3600 8331.0000 1.0000
82.3800 8182.0000 1.0000
82.4000 8096.0000 1.0000
82.4200 8134.0000 1.0000
82.4400 8184.0000 1.0000
82.4600 8221.0000 1.0000
82.4800 8168.0000 1.0000
82.5000 7979.0000 1.0000
82.5200 8103.0000 1.0000
82.5400 8101.0000 1.0000
82.5600 8144.0000 1.0000
82.5800 8093.0000 1.0000
82.6000 8270.0000 1.0000
82.6200 8185.0000 1.0000
82.6400 8034.0000 1.0000
82.6600 8176.0000 1.0000
82.6800 8249.0000 1.0000
82.7000 8266.0000 1.0000
82.7200 8295.0000 1.0000
82.7400 8232.0000 1.0000
82.7600 8288.0000 1.0000
82.7800 8314.0000 1.0000
82.8000 8116.0000 1.0000
82.8200 8319.0000 1.0000
82.8400 8316.0000 1.0000
82.8600 8447.0000 1.0000
82.8800 8475.0000 1.0000
82.9000 8483.0000 1.0000
82.9200 8437.0000 1.0000
82.9400 8494.0000 1.0000
82.9600 8574.0000 1.0000
82.9800 8538.0000 1.0000
83.0000 8524.0000 1.0000
83.0200 8531.0000 1.0000
83.0400 8382.0000 1.0000
83.0600 8379.0000 1.0000
83.0800 8219.0000 1.0000
83.1000 8250.0000 1.0000
83.1200 8298.0000 1.0000
83.1400 8342.0000 1.0000
83.1600 8475.0000 1.0000
83.1800 8600.0000 1.0000
83.2000 8520.0000 1.0000
83.2200 8362.0000 1.0000
83.2400 8401.0000 1.0000
83.2600 8420.0000 1.0000
83.2800 8090.0000 1.0000
83.3000 8384.0000 1.0000
83.3200 8256.0000 1.0000
83.3400 8273.0000 1.0000
83.3600 8150.0000 1.0000
83.3800 8184.0000 1.0000
83.4000 8359.0000 1.0000
83.4200 8198.0000 1.0000
83.4400 8198.0000 1.0000
83.4600 8331.0000 1.0000
83.4800 8211.0000 1.0000
83.5000 8141.0000 1.0000
83.5200 8290.0000 1.0000
83.5400 8156.0000 1.0000
83.5600 8183.0000 1.0000
83.5800 8268.0000 1.0000
83.6000 8098.0000 1.0000
83.6200 8272.0000 1.0000
83.6400 8311.0000 1.0000
83.6600 8238.0000 1.0000
83.6800 8265.0000 1.0000
83.7000 8329.0000 1.0000
83.7200 8309.0000 1.0000
83.7400 8169.0000 1.0000
83.7600 8288.0000 1.0000
83.7800 8459.0000 1.0000
83.8000 8521.0000 1.0000
83.8200 8938.0000 1.0000
83.8400 9019.0000 1.0000
83.8600 8644.0000 1.0000
83.8800 8456.0000 1.0000
83.9000 8403.0000 1.0000
83.9200 8405.0000 1.0000
83.9400 8237.0000 1.0000
83.9600 8254.0000 1.0000
83.9800 8276.0000 1.0000
84.0000 8316.0000 1.0000
84.0200 8369.0000 1.0000
84.0400 8344.0000 1.0000
84.0600 8424.0000 1.0000
84.0800 8622.0000 1.0000
84.1000 8739.0000 1.0000
84.1200 8439.0000 1.0000
84.1400 8475.0000 1.0000
84.1600 8373.0000 1.0000
84.1800 8265.0000 1.0000
84.2000 8277.0000 1.0000
84.2200 8383.0000 1.0000
84.2400 8228.0000 1.0000
84.2600 8312.0000 1.0000
84.2800 8446.0000 1.0000
84.3000 8314.0000 1.0000
84.3200 8413.0000 1.0000
84.3400 8285.0000 1.0000
84.3600 8174.0000 1.0000
84.3800 8519.0000 1.0000
84.4000 8388.0000 1.0000
84.4200 8244.0000 1.0000
84.4400 8266.0000 1.0000
84.4600 8316.0000 1.0000
84.4800 8245.0000 1.0000
84.5000 8291.0000 1.0000
84.5200 8330.0000 1.0000
84.5400 8187.0000 1.0000
84.5600 8222.0000 1.0000
84.5800 8338.0000 1.0000
84.6000 8325.0000 1.0000
84.6200 8360.0000 1.0000
84.6400 8311.0000 1.0000
84.6600 8425.0000 1.0000
84.6800 8395.0000 1.0000
84.7000 8158.0000 1.0000
84.7200 8357.0000 1.0000
84.7400 8221.0000 1.0000
84.7600 8283.0000 1.0000
84.7800 8318.0000 1.0000
84.8000 8431.0000 1.0000
84.8200 8414.0000 1.0000
84.8400 8375.0000 1.0000
84.8600 8629.0000 1.0000
84.8800 8575.0000 1.0000
84.9000 8723.0000 1.0000
84.9200 8828.0000 1.0000
84.9400 8885.0000 1.0000
84.9600 8754.0000 1.0000
84.9800 8654.0000 1.0000
85.0000 8677.0000 1.0000
85.0200 8483.0000 1.0000
85.0400 8416.0000 1.0000
85.0600 8460.0000 1.0000
85.0800 8396.0000 1.0000
85.1000 8395.0000 1.0000
85.1200 8513.0000 1.0000
85.1400 8330.0000 1.0000
85.1600 8524.0000 1.0000
85.1800 8677.0000 1.0000
85.2000 8562.0000 1.0000
85.2200 8666.0000 1.0000
85.2400 8371.0000 1.0000
85.2600 8171.0000 1.0000
85.2800 8211.0000 1.0000
85.3000 8357.0000 1.0000
85.3200 8245.0000 1.0000
85.3400 8267.0000 1.0000
85.3600 8123.0000 1.0000
85.3800 8425.0000 1.0000
85.4000 8110.0000 1.0000
85.4200 8183.0000 1.0000
85.4400 8223.0000 1.0000
85.4600 8152.0000 1.0000
85.4800 8186.0000 1.0000
85.5000 8150.0000 1.0000
85.5200 8239.0000 1.0000
85.5400 8290.0000 1.0000
85.5600 8254.0000 1.0000
85.5800 8231.0000 1.0000
85.6000 8207.0000 1.0000
85.6200 8274.0000 1.0000
85.6400 8281.0000 1.0000
85.6600 8186.0000 1.0000
85.6800 8182.0000 1.0000
85.7000 8325.0000 1.0000
85.7200 8109.0000 1.0000
85.7400 8112.0000 1.0000
85.7600 8107.0000 1.0000
85.7800 8196.0000 1.0000
85.8000 8275.0000 1.0000
85.8200 8185.0000 1.0000
85.8400 8261.0000 1.0000
85.8600 8340.0000 1.0000
85.8800 8093.0000 1.0000
85.9000 8265.0000 1.0000
85.9200 8032.0000 1.0000
85.9400 8107.0000 1.0000
85.9600 8207.0000 1.0000
85.9800 8335.0000 1.0000
86.0000 8145.0000 1.0000
86.0200 8225.0000 1.0000
86.0400 8200.0000 1.0000
86.0600 8267.0000 1.0000
86.0800 8317.0000 1.0000
86.1000 8214.0000 1.0000
86.1200 8139.0000 1.0000
86.1400 8133.0000 1.0000
86.1600 8224.0000 1.0000
86.1800 8507.0000 1.0000
86.2000 8148.0000 1.0000
86.2200 8202.0000 1.0000
86.2400 8233.0000 1.0000
86.2600 8400.0000 1.0000
86.2800 8301.0000 1.0000
86.3000 8314.0000 1.0000
86.3200 8384.0000 1.0000
86.3400 8455.0000 1.0000
86.3600 8497.0000 1.0000
86.3800 8578.0000 1.0000
86.4000 8450.0000 1.0000
86.4200 8329.0000 1.0000
86.4400 8484.0000 1.0000
86.4600 8440.0000 1.0000
86.4800 8519.0000 1.0000
86.5000 8458.0000 1.0000
86.5200 8478.0000 1.0000
86.5400 8406.0000 1.0000
86.5600 8302.0000 1.0000
86.5800 8300.0000 1.0000
86.6000 8387.0000 1.0000
86.6200 8297.0000 1.0000
86.6400 8380.0000 1.0000
86.6600 8380.0000 1.0000
86.6800 8366.0000 1.0000
86.7000 8473.0000 1.0000
86.7200 8384.0000 1.0000
86.7400 8355.0000 1.0000
86.7600 8491.0000 1.0000
86.7800 8362.0000 1.0000
86.8000 8360.0000 1.0000
86.8200 8509.0000 1.0000
86.8400 8434.0000 1.0000
86.8600 8465.0000 1.0000
86.8800 8334.0000 1.0000
86.9000 8316.0000 1.0000
86.9200 8416.0000 1.0000
86.9400 8286.0000 1.0000
86.9600 8258.0000 1.0000
86.9800 8345.0000 1.0000
87.0000 8326.0000 1.0000
87.0200 8384.0000 1.0000
87.0400 8390.0000 1.0000
87.0600 8310.0000 1.0000
87.0800 8471.0000 1.0000
87.1000 8556.0000 1.0000
87.1200 8315.0000 1.0000
87.1400 8326.0000 1.0000
87.1600 8337.0000 1.0000
87.1800 8369.0000 1.0000
87.2000 8177.0000 1.0000
87.2200 8264.0000 1.0000
87.2400 8352.0000 1.0000
87.2600 8403.0000 1.0000
87.2800 8320.0000 1.0000
87.3000 8271.0000 1.0000
87.3200 8256.0000 1.0000
87.3400 8365.0000 1.0000
87.3600 8332.0000 1.0000
87.3800 8279.0000 1.0000
87.4000 8203.0000 1.0000
87.4200 8293.0000 1.0000
87.4400 8344.0000 1.0000
87.4600 8480.0000 1.0000
87.4800 8441.0000 1.0000
87.5000 8285.0000 1.0000
87.5200 8219.0000 1.0000
87.5400 8162.0000 1.0000
87.5600 8432.0000 1.0000
87.5800 8348.0000 1.0000
87.6000 8240.0000 1.0000
87.6200 8200.0000 1.0000
87.6400 8222.0000 1.0000
87.6600 8380.0000 1.0000
87.6800 8306.0000 1.0000
87.7000 8303.0000 1.0000
87.7200 8187.0000 1.0000
87.7400 8243.0000 1.0000
87.7600 8355.0000 1.0000
87.7800 8395.0000 1.0000
87.8000 8183.0000 1.0000
87.8200 8287.0000 1.0000
87.8400 8111.0000 1.0000
87.8600 8331.0000 1.0000
87.8800 8268.0000 1.0000
87.9000 8145.0000 1.0000
87.9200 8375.0000 1.0000
87.9400 8324.0000 1.0000
87.9600 8301.0000 1.0000
87.9800 8247.0000 1.0000
88.0000 8278.0000 1.0000
88.0200 8177.0000 1.0000
88.0400 8364.0000 1.0000
88.0600 8133.0000 1.0000
88.0800 8286.0000 1.0000
88.1000 8313.0000 1.0000
88.1200 8362.0000 1.0000
88.1400 8227.0000 1.0000
88.1600 8214.0000 1.0000
88.1800 8216.0000 1.0000
88.2000 8142.0000 1.0000
88.2200 8247.0000 1.0000
88.2400 8363.0000 1.0000
88.2600 8161.0000 1.0000
88.2800 8170.0000 1.0000
88.3000 8371.0000 1.0000
88.3200 8360.0000 1.0000
88.3400 8203.0000 1.0000
88.3600 8376.0000 1.0000
88.3800 8434.0000 1.0000
88.4000 8295.0000 1.0000
88.4200 8405.0000 1.0000
88.4400 8356.0000 1.0000
88.4600 8440.0000 1.0000
88.4800 8547.0000 1.0000
88.5000 8777.0000 1.0000
88.5200 8534.0000 1.0000
88.5400 8796.0000 1.0000
88.5600 8904.0000 1.0000
88.5800 8850.0000 1.0000
88.6000 8743.0000 1.0000
88.6200 8571.0000 1.0000
88.6400 8596.0000 1.0000
88.6600 8576.0000 1.0000
88.6800 8691.0000 1.0000
88.7000 8574.0000 1.0000
88.7200 8386.0000 1.0000
88.7400 8293.0000 1.0000
88.7600 8522.0000 1.0000
88.7800 8573.0000 1.0000
88.8000 8607.0000 1.0000
88.8200 8633.0000 1.0000
88.8400 8568.0000 1.0000
88.8600 8514.0000 1.0000
88.8800 8682.0000 1.0000
88.9000 8473.0000 1.0000
88.9200 8616.0000 1.0000
88.9400 8539.0000 1.0000
88.9600 8655.0000 1.0000
88.9800 8689.0000 1.0000
89.0000 8577.0000 1.0000
89.0200 8528.0000 1.0000
89.0400 8707.0000 1.0000
89.0600 8525.0000 1.0000
89.0800 8513.0000 1.0000
89.1000 8567.0000 1.0000
89.1200 8561.0000 1.0000
89.1400 8288.0000 1.0000
89.1600 8504.0000 1.0000
89.1800 8373.0000 1.0000
89.2000 8492.0000 1.0000
89.2200 8426.0000 1.0000
89.2400 8461.0000 1.0000
89.2600 8535.0000 1.0000
89.2800 8553.0000 1.0000
89.3000 8492.0000 1.0000
89.3200 8382.0000 1.0000
89.3400 8315.0000 1.0000
89.3600 8412.0000 1.0000
89.3800 8401.0000 1.0000
89.4000 8305.0000 1.0000
89.4200 8171.0000 1.0000
89.4400 8387.0000 1.0000
89.4600 8343.0000 1.0000
89.4800 8429.0000 1.0000
89.5000 8322.0000 1.0000
89.5200 8311.0000 1.0000
89.5400 8285.0000 1.0000
89.5600 8349.0000 1.0000
89.5800 8347.0000 1.0000
89.6000 8468.0000 1.0000
89.6200 8489.0000 1.0000
89.6400 8425.0000 1.0000
89.6600 8578.0000 1.0000
89.6800 8601.0000 1.0000
89.7000 8560.0000 1.0000
89.7200 8709.0000 1.0000
89.7400 8773.0000 1.0000
89.7600 8949.0000 1.0000
89.7800 8914.0000 1.0000
89.8000 8682.0000 1.0000
89.8200 8718.0000 1.0000
89.8400 8694.0000 1.0000
89.8600 8786.0000 1.0000
89.8800 8751.0000 1.0000
89.9000 8570.0000 1.0000
89.9200 8602.0000 1.0000
89.9400 8709.0000 1.0000
89.9600 8572.0000 1.0000
89.9800 8596.0000 1.0000
90.0000 8547.0000 1.0000
*RAS_INT_END
*RAS_TEMPERATURE_START
*RAS_TEMPERATURE_END
*RAS_DATA_END
