*RAS_DATA_START
*RAS_HEADER_START
*DISP_FMT_X "%.2f"
*DISP_FMT_Y "%.0f"
*DISP_FULLSCALE "130792.0000000000"
*DISP_LINE_COLOR "255.0000000000"
*DISP_LINE_STYLE "0.0000000000"
*DISP_LINE_WIDTH "0.2500000000"
*DISP_NOTE "測定データ-4"
*DISP_OFFSET_Y "0.0000000000"
*DISP_PEAKSEARCH_UNIT_Y "cps"
*DISP_RANGE_BOTTOM "0.0000000000"
*DISP_RANGE_LEFT "20.0000000000"
*DISP_RANGE_LOGCUTOFF "0.0100000000"
*DISP_RANGE_RIGHT "90.0000000000"
*DISP_RANGE_TOP "130792.0000000000"
*DISP_SCALE_MODE_Y "0.0000000000"
*DISP_TAB_NAME "2θ/θ"
*DISP_TITLE_Y "強度"
*DISP_UNIT_Y "cps"
*DISP_WINDOW_NAME "MSG_MACROENGINE"
*FILE_COMMENT " "
*FILE_MD5 ""
*FILE_MEMO " "
*FILE_OPERATOR "Administrator"
*FILE_SAMPLE " "
*FILE_TYPE "RAS_RAW"
*FILE_USERGROUP "システムマネージャ"
*FILE_VERSION "1.0000000000"
*HW_ATTACHMENT_ID "ATT0025"
*HW_ATTACHMENT_NAME "標準|Standard"
*HW_COUNTER_ID-0 "CUT0025"
*HW_COUNTER_ID-1 "CUT0020"
*HW_COUNTER_ID-2 "CUT0020"
*HW_COUNTER_ID-3 "CSL0021"
*HW_COUNTER_ID-4 "CMC0021"
*HW_COUNTER_NAME-0 "D/teX Ultra|D/teX Ultra"
*HW_COUNTER_NAME-1 "None|None"
*HW_COUNTER_NAME-2 "None|None"
*HW_COUNTER_NAME-3 "BBM|BBM"
*HW_COUNTER_NAME-4 "検出器モノクロメータ|Detector monochromator"
*HW_COUNTER_SELECT_NAME "D/teX Ultra|D/teX Ultra"
*HW_GONIOMETER_ID "GON0023"
*HW_GONIOMETER_NAME "SmartLab|SmartLab"
*HW_GONIOMETER_RADIUS-0 "90.0"
*HW_GONIOMETER_RADIUS-1 "114.0"
*HW_GONIOMETER_RADIUS-2 "190.0"
*HW_GONIOMETER_RADIUS-3 "300.0"
*HW_GONIOMETER_RADIUS-4 "187.0"
*HW_GONIOMETER_RADIUS-5 "300.0"
*HW_GONIOMETER_RADIUS-6 "113.0"
*HW_GONIOMETER_RADIUS-7 "331.0"
*HW_I_OPT_ID-0 "CBO0021"
*HW_I_OPT_ID-1 "ICR0023"
*HW_I_OPT_ID-2 "ISL0021"
*HW_I_OPT_ID-3 "ISO0021"
*HW_I_OPT_ID-4 "IAD0021"
*HW_I_OPT_ID-5 "IPR0001"
*HW_I_OPT_NAME-0 "CBOユニット|CBO unit"
*HW_I_OPT_NAME-1 "標準入射光学ユニット|Standard incident optical unit"
*HW_I_OPT_NAME-2 "標準入射スリットボックス|Standard incident slit box"
*HW_I_OPT_NAME-3 "入射平行スリット|Incident parallel slit"
*HW_I_OPT_NAME-4 "長手制限スリット|Length limiting slit"
*HW_I_OPT_NAME-5 "None|None"
*HW_R_ATTENUATER_AUTOMODE "0"
*HW_R_OPT_ID-0 "RSS0021"
*HW_R_OPT_ID-1 "RCR0023"
*HW_R_OPT_ID-2 "RSO0021"
*HW_R_OPT_ID-3 "RRS0021"
*HW_R_OPT_ID-4 "ATN0021"
*HW_R_OPT_ID-5 "RFL0021"
*HW_R_OPT_ID-6 "RAD0021"
*HW_R_OPT_NAME-0 "標準受光スリットボックス1|Standard receiving slit box # 1"
*HW_R_OPT_NAME-1 "標準受光光学ユニット1|Standard receiving unit # 1"
*HW_R_OPT_NAME-2 "標準受光光学ユニット2|Standard receiving optical unit # 2"
*HW_R_OPT_NAME-3 "標準受光スリットボックス2|Standard receiving slit box # 2"
*HW_R_OPT_NAME-4 "標準アッテネータ|Standard Attenuator"
*HW_R_OPT_NAME-5 "Cu Kβ|Cu K-beta"
*HW_R_OPT_NAME-6 "調整用受光スリット|Alignment receiving slit"
*HW_SAMPLE_HOLDER_ID "SMP0023"
*HW_SAMPLE_HOLDER_NAME "標準Zステージ|Standard Z stage"
*HW_XG_CURRENT_MAX "50"
*HW_XG_CURRENT_MIN "2"
*HW_XG_CURRENT_RESOLUTION "2"
*HW_XG_CURRENT_UNIT "mA"
*HW_XG_FOCUS "1mm x 10mm"
*HW_XG_FOCUS_TYPE "Normal"
*HW_XG_ID ""
*HW_XG_NAME "3kW 封入管(ID:1200)|3kW Sealed tube(ID:1200)"
*HW_XG_TARGET_ATOMIC_NUMBER "29.0000000000"
*HW_XG_TARGET_NAME "Cu"
*HW_XG_TYPE "Hermetic"
*HW_XG_VOLTAGE_MAX "60"
*HW_XG_VOLTAGE_MIN "20"
*HW_XG_VOLTAGE_RESOLUTION "2"
*HW_XG_VOLTAGE_UNIT "kV"
*HW_XG_WATT_MAX "2"
*HW_XG_WATT_UNIT "kW"
*HW_XG_WAVE_LENGTH_ALPHA1 "1.540593"
*HW_XG_WAVE_LENGTH_ALPHA2 "1.544414"
*HW_XG_WAVE_LENGTH_BETA "1.392250"
*MEAS_COND_AXIS_NAME-0 "2θ/θ"
*MEAS_COND_AXIS_NAME-1 "2θ"
*MEAS_COND_AXIS_NAME-2 "ω"
*MEAS_COND_AXIS_NAME-3 "Z"
*MEAS_COND_AXIS_NAME-4 "2θ/ω"
*MEAS_COND_AXIS_NAME-5 "θs"
*MEAS_COND_AXIS_NAME-6 "θd"
*MEAS_COND_AXIS_NAME-7 "Ts"
*MEAS_COND_AXIS_NAME-8 "CBO選択スリット"
*MEAS_COND_AXIS_NAME-9 "M"
*MEAS_COND_AXIS_NAME-10 "入射平行スリット"
*MEAS_COND_AXIS_NAME-11 "入射スリット"
*MEAS_COND_AXIS_NAME-12 ""
*MEAS_COND_AXIS_NAME-13 "Zs"
*MEAS_COND_AXIS_NAME-14 "入射光学素子"
*MEAS_COND_AXIS_NAME-15 "長手制限スリット"
*MEAS_COND_AXIS_NAME-16 "センタースリット"
*MEAS_COND_AXIS_NAME-17 "フィルター"
*MEAS_COND_AXIS_NAME-18 "受光スリット1"
*MEAS_COND_AXIS_NAME-19 "受光スリット2"
*MEAS_COND_AXIS_NAME-20 "受光光学素子"
*MEAS_COND_AXIS_NAME-21 "受光平行スリット"
*MEAS_COND_AXIS_NAME-22 "調整用受光スリット"
*MEAS_COND_AXIS_NAME-23 ""
*MEAS_COND_AXIS_NAME-24 ""
*MEAS_COND_AXIS_NAME-25 "Zd"
*MEAS_COND_AXIS_NAME-26 "アッテネータ"
*MEAS_COND_AXIS_NAME-27 "検出器モノクロメータ"
*MEAS_COND_AXIS_NAME-28 "モノクロメータスリット"
*MEAS_COND_AXIS_NAME-29 "プライマリビーム"
*MEAS_COND_AXIS_NAME-30 "PHA"
*MEAS_COND_AXIS_NAME_INTERNAL-0 "TwoThetaTheta"
*MEAS_COND_AXIS_NAME_INTERNAL-1 "TwoTheta"
*MEAS_COND_AXIS_NAME_INTERNAL-2 "Omega"
*MEAS_COND_AXIS_NAME_INTERNAL-3 "Z"
*MEAS_COND_AXIS_NAME_INTERNAL-4 "TwoThetaOmega"
*MEAS_COND_AXIS_NAME_INTERNAL-5 "ThetaS"
*MEAS_COND_AXIS_NAME_INTERNAL-6 "ThetaD"
*MEAS_COND_AXIS_NAME_INTERNAL-7 "Ts"
*MEAS_COND_AXIS_NAME_INTERNAL-8 "CBO"
*MEAS_COND_AXIS_NAME_INTERNAL-9 "CBO-M"
*MEAS_COND_AXIS_NAME_INTERNAL-10 "IncidentSollerSlit"
*MEAS_COND_AXIS_NAME_INTERNAL-11 "IncidentSlitBox"
*MEAS_COND_AXIS_NAME_INTERNAL-12 "IncidentSlitBox-_Axis"
*MEAS_COND_AXIS_NAME_INTERNAL-13 "Zs"
*MEAS_COND_AXIS_NAME_INTERNAL-14 "IncidentMonochromator"
*MEAS_COND_AXIS_NAME_INTERNAL-15 "IncidentAxdSlit"
*MEAS_COND_AXIS_NAME_INTERNAL-16 "CenterSlit"
*MEAS_COND_AXIS_NAME_INTERNAL-17 "Filter"
*MEAS_COND_AXIS_NAME_INTERNAL-18 "ReceivingSlitBox1"
*MEAS_COND_AXIS_NAME_INTERNAL-19 "ReceivingSlitBox2"
*MEAS_COND_AXIS_NAME_INTERNAL-20 "ReceivingOptics"
*MEAS_COND_AXIS_NAME_INTERNAL-21 "ReceivingSollerSlit"
*MEAS_COND_AXIS_NAME_INTERNAL-22 "ReceivingAxdSlit"
*MEAS_COND_AXIS_NAME_INTERNAL-23 "ReceivingSlitBox1-_Axis"
*MEAS_COND_AXIS_NAME_INTERNAL-24 "ReceivingSlitBox2-_Axis"
*MEAS_COND_AXIS_NAME_INTERNAL-25 "ReceivingSlitBox2-Zd"
*MEAS_COND_AXIS_NAME_INTERNAL-26 "Attenuator"
*MEAS_COND_AXIS_NAME_INTERNAL-27 "CounterMonochromator"
*MEAS_COND_AXIS_NAME_INTERNAL-28 "CounterSlit"
*MEAS_COND_AXIS_NAME_INTERNAL-29 "IncidentPrimary"
*MEAS_COND_AXIS_NAME_INTERNAL-30 "PHA"
*MEAS_COND_AXIS_NAME_MAGICNO-0 "83951616.0000000000"
*MEAS_COND_AXIS_NAME_MAGICNO-1 "268632064.0000000000"
*MEAS_COND_AXIS_NAME_MAGICNO-2 "268500992.0000000000"
*MEAS_COND_AXIS_NAME_MAGICNO-3 "285278208.0000000000"
*MEAS_COND_AXIS_NAME_MAGICNO-4 "83951616.0000000000"
*MEAS_COND_AXIS_NAME_MAGICNO-5 "131072.0000000000"
*MEAS_COND_AXIS_NAME_MAGICNO-6 "131072.0000000000"
*MEAS_COND_AXIS_NAME_MAGICNO-7 "318898176.0000000000"
*MEAS_COND_AXIS_NAME_MAGICNO-8 "20971521.0000000000"
*MEAS_COND_AXIS_NAME_MAGICNO-9 "285343744.0000000000"
*MEAS_COND_AXIS_NAME_MAGICNO-10 "20971521.0000000000"
*MEAS_COND_AXIS_NAME_MAGICNO-11 "22020097.0000000000"
*MEAS_COND_AXIS_NAME_MAGICNO-12 "25165824.0000000000"
*MEAS_COND_AXIS_NAME_MAGICNO-13 "318898176.0000000000"
*MEAS_COND_AXIS_NAME_MAGICNO-14 "1.0000000000"
*MEAS_COND_AXIS_NAME_MAGICNO-15 "20971521.0000000000"
*MEAS_COND_AXIS_NAME_MAGICNO-16 "20971521.0000000000"
*MEAS_COND_AXIS_NAME_MAGICNO-17 "20971521.0000000000"
*MEAS_COND_AXIS_NAME_MAGICNO-18 "23068673.0000000000"
*MEAS_COND_AXIS_NAME_MAGICNO-19 "23068673.0000000000"
*MEAS_COND_AXIS_NAME_MAGICNO-20 "20971521.0000000000"
*MEAS_COND_AXIS_NAME_MAGICNO-21 "20971521.0000000000"
*MEAS_COND_AXIS_NAME_MAGICNO-22 "20971521.0000000000"
*MEAS_COND_AXIS_NAME_MAGICNO-23 "25165824.0000000000"
*MEAS_COND_AXIS_NAME_MAGICNO-24 "25165824.0000000000"
*MEAS_COND_AXIS_NAME_MAGICNO-25 "285343744.0000000000"
*MEAS_COND_AXIS_NAME_MAGICNO-26 "17301505.0000000000"
*MEAS_COND_AXIS_NAME_MAGICNO-27 "20971521.0000000000"
*MEAS_COND_AXIS_NAME_MAGICNO-28 "20971521.0000000000"
*MEAS_COND_AXIS_NAME_MAGICNO-29 "20971521.0000000000"
*MEAS_COND_AXIS_NAME_MAGICNO-30 "0.0000000000"
*MEAS_COND_AXIS_OFFSET-0 "-"
*MEAS_COND_AXIS_OFFSET-1 "-0.1081000000"
*MEAS_COND_AXIS_OFFSET-2 "0.3758000000"
*MEAS_COND_AXIS_OFFSET-3 "-"
*MEAS_COND_AXIS_OFFSET-4 "-"
*MEAS_COND_AXIS_OFFSET-5 "0.3758000000"
*MEAS_COND_AXIS_OFFSET-6 "-0.4839000000"
*MEAS_COND_AXIS_OFFSET-7 "-"
*MEAS_COND_AXIS_OFFSET-8 "-"
*MEAS_COND_AXIS_OFFSET-9 "-"
*MEAS_COND_AXIS_OFFSET-10 "-"
*MEAS_COND_AXIS_OFFSET-11 "-"
*MEAS_COND_AXIS_OFFSET-12 "-"
*MEAS_COND_AXIS_OFFSET-13 "-"
*MEAS_COND_AXIS_OFFSET-14 "-"
*MEAS_COND_AXIS_OFFSET-15 "-"
*MEAS_COND_AXIS_OFFSET-16 "-"
*MEAS_COND_AXIS_OFFSET-17 "-"
*MEAS_COND_AXIS_OFFSET-18 "-"
*MEAS_COND_AXIS_OFFSET-19 "-"
*MEAS_COND_AXIS_OFFSET-20 "-"
*MEAS_COND_AXIS_OFFSET-21 "-"
*MEAS_COND_AXIS_OFFSET-22 "-"
*MEAS_COND_AXIS_OFFSET-23 "-"
*MEAS_COND_AXIS_OFFSET-24 "-"
*MEAS_COND_AXIS_OFFSET-25 "-"
*MEAS_COND_AXIS_OFFSET-26 "-"
*MEAS_COND_AXIS_OFFSET-27 "-"
*MEAS_COND_AXIS_OFFSET-28 "-"
*MEAS_COND_AXIS_OFFSET-29 "-"
*MEAS_COND_AXIS_OFFSET-30 "-"
*MEAS_COND_AXIS_POSITION-0 "0.0000000000"
*MEAS_COND_AXIS_POSITION-1 "0.0000000000"
*MEAS_COND_AXIS_POSITION-2 "0.0000000000"
*MEAS_COND_AXIS_POSITION-3 "-0.5500000000"
*MEAS_COND_AXIS_POSITION-4 "0.0000000000"
*MEAS_COND_AXIS_POSITION-5 "0.0000000000"
*MEAS_COND_AXIS_POSITION-6 "0.0000000000"
*MEAS_COND_AXIS_POSITION-7 "-0.4278800000"
*MEAS_COND_AXIS_POSITION-8 "BB"
*MEAS_COND_AXIS_POSITION-9 "0.0000000000"
*MEAS_COND_AXIS_POSITION-10 "Soller_slit_5.0deg"
*MEAS_COND_AXIS_POSITION-11 "2/3deg"
*MEAS_COND_AXIS_POSITION-12 "2.2088000000"
*MEAS_COND_AXIS_POSITION-13 "-0.4140600000"
*MEAS_COND_AXIS_POSITION-14 "0.0000000000"
*MEAS_COND_AXIS_POSITION-15 "10.0mm"
*MEAS_COND_AXIS_POSITION-16 "None"
*MEAS_COND_AXIS_POSITION-17 "Cu_K-beta"
*MEAS_COND_AXIS_POSITION-18 "13.000mm"
*MEAS_COND_AXIS_POSITION-19 "13.000mm"
*MEAS_COND_AXIS_POSITION-20 "No_unit"
*MEAS_COND_AXIS_POSITION-21 "Soller_slit_5.0deg"
*MEAS_COND_AXIS_POSITION-22 "None"
*MEAS_COND_AXIS_POSITION-23 "13.0000000000"
*MEAS_COND_AXIS_POSITION-24 "13.0000000000"
*MEAS_COND_AXIS_POSITION-25 "0.0109400000"
*MEAS_COND_AXIS_POSITION-26 "Open"
*MEAS_COND_AXIS_POSITION-27 "None"
*MEAS_COND_AXIS_POSITION-28 "None"
*MEAS_COND_AXIS_POSITION-29 "None"
*MEAS_COND_AXIS_POSITION-30 "38.0000000000"
*MEAS_COND_AXIS_UNIT-0 "deg"
*MEAS_COND_AXIS_UNIT-1 "deg"
*MEAS_COND_AXIS_UNIT-2 "deg"
*MEAS_COND_AXIS_UNIT-3 "mm"
*MEAS_COND_AXIS_UNIT-4 "deg"
*MEAS_COND_AXIS_UNIT-5 "deg"
*MEAS_COND_AXIS_UNIT-6 "deg"
*MEAS_COND_AXIS_UNIT-7 "mm"
*MEAS_COND_AXIS_UNIT-8 ""
*MEAS_COND_AXIS_UNIT-9 "pulse"
*MEAS_COND_AXIS_UNIT-10 ""
*MEAS_COND_AXIS_UNIT-11 ""
*MEAS_COND_AXIS_UNIT-12 "mm"
*MEAS_COND_AXIS_UNIT-13 "mm"
*MEAS_COND_AXIS_UNIT-14 ""
*MEAS_COND_AXIS_UNIT-15 ""
*MEAS_COND_AXIS_UNIT-16 ""
*MEAS_COND_AXIS_UNIT-17 ""
*MEAS_COND_AXIS_UNIT-18 ""
*MEAS_COND_AXIS_UNIT-19 ""
*MEAS_COND_AXIS_UNIT-20 ""
*MEAS_COND_AXIS_UNIT-21 ""
*MEAS_COND_AXIS_UNIT-22 ""
*MEAS_COND_AXIS_UNIT-23 "mm"
*MEAS_COND_AXIS_UNIT-24 "mm"
*MEAS_COND_AXIS_UNIT-25 "mm"
*MEAS_COND_AXIS_UNIT-26 ""
*MEAS_COND_AXIS_UNIT-27 ""
*MEAS_COND_AXIS_UNIT-28 ""
*MEAS_COND_AXIS_UNIT-29 ""
*MEAS_COND_AXIS_UNIT-30 "div"
*MEAS_COND_COUNTER_CNTLOSS_CORR "0.0000000000"
*MEAS_COND_COUNTER_PHABASE "38.0000000000"
*MEAS_COND_COUNTER_PHAWINDOW "16.0000000000"
*MEAS_COND_COUNTER_PHA_UNIT "div"
*MEAS_COND_COUNTER_TAUDIFF "30.0000000000"
*MEAS_COND_COUNTER_TAUINT "0.0000000000"
*MEAS_COND_IRRADIATION_MODE "OFF"
*MEAS_COND_IRRADIATION_WIDTH ""
*MEAS_COND_OPT_ATTR "集中法"
*MEAS_COND_OPT_NAME "@集中法"
*MEAS_COND_UNSYMMETRIC_MODE "OFF"
*MEAS_COND_XG_CURRENT "30.0000000000"
*MEAS_COND_XG_VOLTAGE "40.0000000000"
*MEAS_COND_XG_WAVE_TYPE "Ka"
*MEAS_DATA_COUNT "3501.0000000000"
*MEAS_SCAN_AXIS_X "2θ/θ"
*MEAS_SCAN_AXIS_X_INTERNAL "TwoThetaTheta"
*MEAS_SCAN_END_TIME "08/26/20 17:04:15"
*MEAS_SCAN_MODE "CONTINUOUS"
*MEAS_SCAN_MONITOR "0"
*MEAS_SCAN_RESOLUTION_X "0.0002"
*MEAS_SCAN_SPEED "1.0"
*MEAS_SCAN_SPEED_UNIT "deg/min"
*MEAS_SCAN_START "20.0000000000"
*MEAS_SCAN_START_TIME "08/26/20 15:51:21"
*MEAS_SCAN_STEP "0.0200000000"
*MEAS_SCAN_STOP "90.0000000000"
*MEAS_SCAN_UNIT_X "deg"
*MEAS_SCAN_UNIT_Y "counts"
*RAS_HEADER_END
*RAS_INT_START
20.0000 6841.0000 1.0000
20.0200 6929.0000 1.0000
20.0400 6867.0000 1.0000
20.0600 6955.0000 1.0000
20.0800 6956.0000 1.0000
20.1000 6833.0000 1.0000
20.1200 6864.0000 1.0000
20.1400 6871.0000 1.0000
20.1600 6883.0000 1.0000
20.1800 6914.0000 1.0000
20.2000 6922.0000 1.0000
20.2200 7023.0000 1.0000
20.2400 6963.0000 1.0000
20.2600 7003.0000 1.0000
20.2800 6949.0000 1.0000
20.3000 6973.0000 1.0000
20.3200 6988.0000 1.0000
20.3400 7031.0000 1.0000
20.3600 6942.0000 1.0000
20.3800 6915.0000 1.0000
20.4000 6939.0000 1.0000
20.4200 7013.0000 1.0000
20.4400 6988.0000 1.0000
20.4600 7111.0000 1.0000
20.4800 7069.0000 1.0000
20.5000 7204.0000 1.0000
20.5200 7318.0000 1.0000
20.5400 7500.0000 1.0000
20.5600 7440.0000 1.0000
20.5800 7552.0000 1.0000
20.6000 7829.0000 1.0000
20.6200 8013.0000 1.0000
20.6400 8289.0000 1.0000
20.6600 8675.0000 1.0000
20.6800 9194.0000 1.0000
20.7000 9467.0000 1.0000
20.7200 10135.0000 1.0000
20.7400 11551.0000 1.0000
20.7600 12565.0000 1.0000
20.7800 14426.0000 1.0000
20.8000 17402.0000 1.0000
20.8200 20949.0000 1.0000
20.8400 26950.0000 1.0000
20.8600 32881.0000 1.0000
20.8800 29103.0000 1.0000
20.9000 23123.0000 1.0000
20.9200 19748.0000 1.0000
20.9400 14331.0000 1.0000
20.9600 10074.0000 1.0000
20.9800 8659.0000 1.0000
21.0000 8001.0000 1.0000
21.0200 7694.0000 1.0000
21.0400 7464.0000 1.0000
21.0600 7384.0000 1.0000
21.0800 7095.0000 1.0000
21.1000 7059.0000 1.0000
21.1200 6983.0000 1.0000
21.1400 6996.0000 1.0000
21.1600 6866.0000 1.0000
21.1800 6801.0000 1.0000
21.2000 6870.0000 1.0000
21.2200 6835.0000 1.0000
21.2400 6761.0000 1.0000
21.2600 6740.0000 1.0000
21.2800 6666.0000 1.0000
21.3000 6748.0000 1.0000
21.3200 6723.0000 1.0000
21.3400 6786.0000 1.0000
21.3600 6608.0000 1.0000
21.3800 6572.0000 1.0000
21.4000 6769.0000 1.0000
21.4200 6638.0000 1.0000
21.4400 6658.0000 1.0000
21.4600 6603.0000 1.0000
21.4800 6674.0000 1.0000
21.5000 6576.0000 1.0000
21.5200 6720.0000 1.0000
21.5400 6600.0000 1.0000
21.5600 6660.0000 1.0000
21.5800 6660.0000 1.0000
21.6000 6677.0000 1.0000
21.6200 6550.0000 1.0000
21.6400 6722.0000 1.0000
21.6600 6622.0000 1.0000
21.6800 6753.0000 1.0000
21.7000 6642.0000 1.0000
21.7200 6592.0000 1.0000
21.7400 6610.0000 1.0000
21.7600 6512.0000 1.0000
21.7800 6638.0000 1.0000
21.8000 6735.0000 1.0000
21.8200 6564.0000 1.0000
21.8400 6613.0000 1.0000
21.8600 6705.0000 1.0000
21.8800 6710.0000 1.0000
21.9000 6674.0000 1.0000
21.9200 6457.0000 1.0000
21.9400 6641.0000 1.0000
21.9600 6570.0000 1.0000
21.9800 6517.0000 1.0000
22.0000 6534.0000 1.0000
22.0200 6613.0000 1.0000
22.0400 6552.0000 1.0000
22.0600 6561.0000 1.0000
22.0800 6513.0000 1.0000
22.1000 6712.0000 1.0000
22.1200 6556.0000 1.0000
22.1400 6668.0000 1.0000
22.1600 6451.0000 1.0000
22.1800 6512.0000 1.0000
22.2000 6568.0000 1.0000
22.2200 6568.0000 1.0000
22.2400 6531.0000 1.0000
22.2600 6522.0000 1.0000
22.2800 6401.0000 1.0000
22.3000 6443.0000 1.0000
22.3200 6439.0000 1.0000
22.3400 6721.0000 1.0000
22.3600 6488.0000 1.0000
22.3800 6437.0000 1.0000
22.4000 6531.0000 1.0000
22.4200 6645.0000 1.0000
22.4400 6604.0000 1.0000
22.4600 6565.0000 1.0000
22.4800 6436.0000 1.0000
22.5000 6517.0000 1.0000
22.5200 6410.0000 1.0000
22.5400 6359.0000 1.0000
22.5600 6428.0000 1.0000
22.5800 6347.0000 1.0000
22.6000 6397.0000 1.0000
22.6200 6555.0000 1.0000
22.6400 6450.0000 1.0000
22.6600 6536.0000 1.0000
22.6800 6560.0000 1.0000
22.7000 6617.0000 1.0000
22.7200 6595.0000 1.0000
22.7400 6269.0000 1.0000
22.7600 6389.0000 1.0000
22.7800 6431.0000 1.0000
22.8000 6447.0000 1.0000
22.8200 6360.0000 1.0000
22.8400 6405.0000 1.0000
22.8600 6430.0000 1.0000
22.8800 6404.0000 1.0000
22.9000 6296.0000 1.0000
22.9200 6293.0000 1.0000
22.9400 6321.0000 1.0000
22.9600 6367.0000 1.0000
22.9800 6391.0000 1.0000
23.0000 6411.0000 1.0000
23.0200 6279.0000 1.0000
23.0400 6407.0000 1.0000
23.0600 6455.0000 1.0000
23.0800 6464.0000 1.0000
23.1000 6323.0000 1.0000
23.1200 6395.0000 1.0000
23.1400 6519.0000 1.0000
23.1600 6319.0000 1.0000
23.1800 6311.0000 1.0000
23.2000 6380.0000 1.0000
23.2200 6342.0000 1.0000
23.2400 6468.0000 1.0000
23.2600 6332.0000 1.0000
23.2800 6417.0000 1.0000
23.3000 6323.0000 1.0000
23.3200 6392.0000 1.0000
23.3400 6357.0000 1.0000
23.3600 6249.0000 1.0000
23.3800 6552.0000 1.0000
23.4000 6200.0000 1.0000
23.4200 6380.0000 1.0000
23.4400 6157.0000 1.0000
23.4600 6349.0000 1.0000
23.4800 6369.0000 1.0000
23.5000 6250.0000 1.0000
23.5200 6305.0000 1.0000
23.5400 6310.0000 1.0000
23.5600 6342.0000 1.0000
23.5800 6445.0000 1.0000
23.6000 6348.0000 1.0000
23.6200 6483.0000 1.0000
23.6400 6294.0000 1.0000
23.6600 6444.0000 1.0000
23.6800 6464.0000 1.0000
23.7000 6304.0000 1.0000
23.7200 6316.0000 1.0000
23.7400 6264.0000 1.0000
23.7600 6294.0000 1.0000
23.7800 6453.0000 1.0000
23.8000 6391.0000 1.0000
23.8200 6365.0000 1.0000
23.8400 6296.0000 1.0000
23.8600 6554.0000 1.0000
23.8800 6570.0000 1.0000
23.9000 6621.0000 1.0000
23.9200 6644.0000 1.0000
23.9400 6887.0000 1.0000
23.9600 6820.0000 1.0000
23.9800 7111.0000 1.0000
24.0000 7500.0000 1.0000
24.0200 7897.0000 1.0000
24.0400 7972.0000 1.0000
24.0600 7784.0000 1.0000
24.0800 7785.0000 1.0000
24.1000 7843.0000 1.0000
24.1200 8261.0000 1.0000
24.1400 8386.0000 1.0000
24.1600 8215.0000 1.0000
24.1800 8010.0000 1.0000
24.2000 7632.0000 1.0000
24.2200 7293.0000 1.0000
24.2400 6994.0000 1.0000
24.2600 6761.0000 1.0000
24.2800 6620.0000 1.0000
24.3000 6575.0000 1.0000
24.3200 6359.0000 1.0000
24.3400 6432.0000 1.0000
24.3600 6382.0000 1.0000
24.3800 6225.0000 1.0000
24.4000 6177.0000 1.0000
24.4200 6199.0000 1.0000
24.4400 6076.0000 1.0000
24.4600 6243.0000 1.0000
24.4800 6329.0000 1.0000
24.5000 6278.0000 1.0000
24.5200 6300.0000 1.0000
24.5400 6261.0000 1.0000
24.5600 6312.0000 1.0000
24.5800 6162.0000 1.0000
24.6000 6140.0000 1.0000
24.6200 6338.0000 1.0000
24.6400 6332.0000 1.0000
24.6600 6243.0000 1.0000
24.6800 6218.0000 1.0000
24.7000 6179.0000 1.0000
24.7200 6293.0000 1.0000
24.7400 6281.0000 1.0000
24.7600 6380.0000 1.0000
24.7800 6164.0000 1.0000
24.8000 6302.0000 1.0000
24.8200 6222.0000 1.0000
24.8400 6235.0000 1.0000
24.8600 6069.0000 1.0000
24.8800 6086.0000 1.0000
24.9000 6252.0000 1.0000
24.9200 6155.0000 1.0000
24.9400 6223.0000 1.0000
24.9600 6242.0000 1.0000
24.9800 6104.0000 1.0000
25.0000 6370.0000 1.0000
25.0200 6178.0000 1.0000
25.0400 6193.0000 1.0000
25.0600 6238.0000 1.0000
25.0800 6248.0000 1.0000
25.1000 6269.0000 1.0000
25.1200 6313.0000 1.0000
25.1400 6193.0000 1.0000
25.1600 6269.0000 1.0000
25.1800 6238.0000 1.0000
25.2000 6274.0000 1.0000
25.2200 6326.0000 1.0000
25.2400 6373.0000 1.0000
25.2600 6415.0000 1.0000
25.2800 6573.0000 1.0000
25.3000 6634.0000 1.0000
25.3200 6757.0000 1.0000
25.3400 6965.0000 1.0000
25.3600 7074.0000 1.0000
25.3800 7291.0000 1.0000
25.4000 7419.0000 1.0000
25.4200 7932.0000 1.0000
25.4400 8239.0000 1.0000
25.4600 8768.0000 1.0000
25.4800 9469.0000 1.0000
25.5000 10448.0000 1.0000
25.5200 11522.0000 1.0000
25.5400 12677.0000 1.0000
25.5600 13613.0000 1.0000
25.5800 13508.0000 1.0000
25.6000 12367.0000 1.0000
25.6200 11486.0000 1.0000
25.6400 10456.0000 1.0000
25.6600 9387.0000 1.0000
25.6800 8517.0000 1.0000
25.7000 7809.0000 1.0000
25.7200 7547.0000 1.0000
25.7400 7357.0000 1.0000
25.7600 7241.0000 1.0000
25.7800 7080.0000 1.0000
25.8000 6981.0000 1.0000
25.8200 6813.0000 1.0000
25.8400 6798.0000 1.0000
25.8600 6994.0000 1.0000
25.8800 6816.0000 1.0000
25.9000 6575.0000 1.0000
25.9200 6714.0000 1.0000
25.9400 6673.0000 1.0000
25.9600 6745.0000 1.0000
25.9800 6721.0000 1.0000
26.0000 6674.0000 1.0000
26.0200 6762.0000 1.0000
26.0400 6610.0000 1.0000
26.0600 6709.0000 1.0000
26.0800 6614.0000 1.0000
26.1000 6535.0000 1.0000
26.1200 6865.0000 1.0000
26.1400 6616.0000 1.0000
26.1600 6769.0000 1.0000
26.1800 6680.0000 1.0000
26.2000 6808.0000 1.0000
26.2200 6780.0000 1.0000
26.2400 6945.0000 1.0000
26.2600 7054.0000 1.0000
26.2800 7358.0000 1.0000
26.3000 7450.0000 1.0000
26.3200 8004.0000 1.0000
26.3400 8429.0000 1.0000
26.3600 9006.0000 1.0000
26.3800 10025.0000 1.0000
26.4000 11204.0000 1.0000
26.4200 12680.0000 1.0000
26.4400 14380.0000 1.0000
26.4600 17117.0000 1.0000
26.4800 19944.0000 1.0000
26.5000 21814.0000 1.0000
26.5200 27500.0000 1.0000
26.5400 34056.0000 1.0000
26.5600 40489.0000 1.0000
26.5800 57058.0000 1.0000
26.6000 86654.0000 1.0000
26.6200 122280.0000 1.0000
26.6400 130792.0000 1.0000
26.6600 109118.0000 1.0000
26.6800 87102.0000 1.0000
26.7000 74641.0000 1.0000
26.7200 57650.0000 1.0000
26.7400 36391.0000 1.0000
26.7600 20696.0000 1.0000
26.7800 14580.0000 1.0000
26.8000 12205.0000 1.0000
26.8200 10595.0000 1.0000
26.8400 9503.0000 1.0000
26.8600 8791.0000 1.0000
26.8800 7980.0000 1.0000
26.9000 7376.0000 1.0000
26.9200 7048.0000 1.0000
26.9400 6861.0000 1.0000
26.9600 6745.0000 1.0000
26.9800 6670.0000 1.0000
27.0000 6565.0000 1.0000
27.0200 6613.0000 1.0000
27.0400 6642.0000 1.0000
27.0600 6676.0000 1.0000
27.0800 6552.0000 1.0000
27.1000 6507.0000 1.0000
27.1200 6552.0000 1.0000
27.1400 6551.0000 1.0000
27.1600 6347.0000 1.0000
27.1800 6662.0000 1.0000
27.2000 6422.0000 1.0000
27.2200 6424.0000 1.0000
27.2400 6327.0000 1.0000
27.2600 6412.0000 1.0000
27.2800 6445.0000 1.0000
27.3000 6333.0000 1.0000
27.3200 6238.0000 1.0000
27.3400 6283.0000 1.0000
27.3600 6218.0000 1.0000
27.3800 6331.0000 1.0000
27.4000 6200.0000 1.0000
27.4200 6300.0000 1.0000
27.4400 6428.0000 1.0000
27.4600 6264.0000 1.0000
27.4800 6165.0000 1.0000
27.5000 6291.0000 1.0000
27.5200 6194.0000 1.0000
27.5400 6348.0000 1.0000
27.5600 6331.0000 1.0000
27.5800 6180.0000 1.0000
27.6000 6154.0000 1.0000
27.6200 6275.0000 1.0000
27.6400 6095.0000 1.0000
27.6600 6203.0000 1.0000
27.6800 6088.0000 1.0000
27.7000 6151.0000 1.0000
27.7200 6088.0000 1.0000
27.7400 6219.0000 1.0000
27.7600 6213.0000 1.0000
27.7800 6128.0000 1.0000
27.8000 6034.0000 1.0000
27.8200 6087.0000 1.0000
27.8400 6121.0000 1.0000
27.8600 6169.0000 1.0000
27.8800 5976.0000 1.0000
27.9000 6020.0000 1.0000
27.9200 6090.0000 1.0000
27.9400 6132.0000 1.0000
27.9600 6080.0000 1.0000
27.9800 6207.0000 1.0000
28.0000 6139.0000 1.0000
28.0200 6133.0000 1.0000
28.0400 6065.0000 1.0000
28.0600 6089.0000 1.0000
28.0800 6080.0000 1.0000
28.1000 6032.0000 1.0000
28.1200 6077.0000 1.0000
28.1400 6081.0000 1.0000
28.1600 6069.0000 1.0000
28.1800 6115.0000 1.0000
28.2000 6030.0000 1.0000
28.2200 6111.0000 1.0000
28.2400 6117.0000 1.0000
28.2600 6160.0000 1.0000
28.2800 6109.0000 1.0000
28.3000 5975.0000 1.0000
28.3200 6056.0000 1.0000
28.3400 6060.0000 1.0000
28.3600 6053.0000 1.0000
28.3800 6003.0000 1.0000
28.4000 6006.0000 1.0000
28.4200 6046.0000 1.0000
28.4400 5894.0000 1.0000
28.4600 6004.0000 1.0000
28.4800 5835.0000 1.0000
28.5000 5830.0000 1.0000
28.5200 5960.0000 1.0000
28.5400 5875.0000 1.0000
28.5600 5956.0000 1.0000
28.5800 6121.0000 1.0000
28.6000 6004.0000 1.0000
28.6200 6086.0000 1.0000
28.6400 6143.0000 1.0000
28.6600 6062.0000 1.0000
28.6800 5796.0000 1.0000
28.7000 5872.0000 1.0000
28.7200 5998.0000 1.0000
28.7400 6056.0000 1.0000
28.7600 5976.0000 1.0000
28.7800 5953.0000 1.0000
28.8000 6103.0000 1.0000
28.8200 5872.0000 1.0000
28.8400 6052.0000 1.0000
28.8600 5994.0000 1.0000
28.8800 5919.0000 1.0000
28.9000 5976.0000 1.0000
28.9200 5862.0000 1.0000
28.9400 5821.0000 1.0000
28.9600 5834.0000 1.0000
28.9800 5961.0000 1.0000
29.0000 6037.0000 1.0000
29.0200 5938.0000 1.0000
29.0400 5904.0000 1.0000
29.0600 5943.0000 1.0000
29.0800 5948.0000 1.0000
29.1000 5894.0000 1.0000
29.1200 6011.0000 1.0000
29.1400 5960.0000 1.0000
29.1600 5769.0000 1.0000
29.1800 5868.0000 1.0000
29.2000 5851.0000 1.0000
29.2200 5981.0000 1.0000
29.2400 5806.0000 1.0000
29.2600 5973.0000 1.0000
29.2800 5907.0000 1.0000
29.3000 5844.0000 1.0000
29.3200 5915.0000 1.0000
29.3400 5915.0000 1.0000
29.3600 5912.0000 1.0000
29.3800 6046.0000 1.0000
29.4000 5834.0000 1.0000
29.4200 5866.0000 1.0000
29.4400 5802.0000 1.0000
29.4600 5847.0000 1.0000
29.4800 5808.0000 1.0000
29.5000 5840.0000 1.0000
29.5200 5793.0000 1.0000
29.5400 5858.0000 1.0000
29.5600 5803.0000 1.0000
29.5800 5879.0000 1.0000
29.6000 5851.0000 1.0000
29.6200 5699.0000 1.0000
29.6400 5912.0000 1.0000
29.6600 5953.0000 1.0000
29.6800 5969.0000 1.0000
29.7000 5838.0000 1.0000
29.7200 5825.0000 1.0000
29.7400 5912.0000 1.0000
29.7600 5864.0000 1.0000
29.7800 5859.0000 1.0000
29.8000 5948.0000 1.0000
29.8200 5979.0000 1.0000
29.8400 6030.0000 1.0000
29.8600 6027.0000 1.0000
29.8800 6085.0000 1.0000
29.9000 6007.0000 1.0000
29.9200 5951.0000 1.0000
29.9400 6145.0000 1.0000
29.9600 6192.0000 1.0000
29.9800 6422.0000 1.0000
30.0000 6614.0000 1.0000
30.0200 6762.0000 1.0000
30.0400 6844.0000 1.0000
30.0600 7393.0000 1.0000
30.0800 7753.0000 1.0000
30.1000 8176.0000 1.0000
30.1200 8306.0000 1.0000
30.1400 8144.0000 1.0000
30.1600 8065.0000 1.0000
30.1800 7781.0000 1.0000
30.2000 7424.0000 1.0000
30.2200 7182.0000 1.0000
30.2400 6990.0000 1.0000
30.2600 6667.0000 1.0000
30.2800 6557.0000 1.0000
30.3000 6350.0000 1.0000
30.3200 6236.0000 1.0000
30.3400 6259.0000 1.0000
30.3600 6052.0000 1.0000
30.3800 6032.0000 1.0000
30.4000 5961.0000 1.0000
30.4200 5913.0000 1.0000
30.4400 5857.0000 1.0000
30.4600 5894.0000 1.0000
30.4800 5868.0000 1.0000
30.5000 5759.0000 1.0000
30.5200 5813.0000 1.0000
30.5400 5886.0000 1.0000
30.5600 5909.0000 1.0000
30.5800 5812.0000 1.0000
30.6000 5691.0000 1.0000
30.6200 5755.0000 1.0000
30.6400 5710.0000 1.0000
30.6600 5838.0000 1.0000
30.6800 5748.0000 1.0000
30.7000 5724.0000 1.0000
30.7200 5754.0000 1.0000
30.7400 5645.0000 1.0000
30.7600 5810.0000 1.0000
30.7800 5669.0000 1.0000
30.8000 5647.0000 1.0000
30.8200 5763.0000 1.0000
30.8400 5724.0000 1.0000
30.8600 5752.0000 1.0000
30.8800 5662.0000 1.0000
30.9000 5628.0000 1.0000
30.9200 5730.0000 1.0000
30.9400 5649.0000 1.0000
30.9600 5763.0000 1.0000
30.9800 5642.0000 1.0000
31.0000 5698.0000 1.0000
31.0200 5786.0000 1.0000
31.0400 5745.0000 1.0000
31.0600 5752.0000 1.0000
31.0800 5649.0000 1.0000
31.1000 5697.0000 1.0000
31.1200 5621.0000 1.0000
31.1400 5781.0000 1.0000
31.1600 5756.0000 1.0000
31.1800 5670.0000 1.0000
31.2000 5808.0000 1.0000
31.2200 5586.0000 1.0000
31.2400 5775.0000 1.0000
31.2600 5705.0000 1.0000
31.2800 5805.0000 1.0000
31.3000 5790.0000 1.0000
31.3200 5680.0000 1.0000
31.3400 5701.0000 1.0000
31.3600 5730.0000 1.0000
31.3800 5628.0000 1.0000
31.4000 5654.0000 1.0000
31.4200 5623.0000 1.0000
31.4400 5759.0000 1.0000
31.4600 5758.0000 1.0000
31.4800 5636.0000 1.0000
31.5000 5579.0000 1.0000
31.5200 5682.0000 1.0000
31.5400 5612.0000 1.0000
31.5600 5681.0000 1.0000
31.5800 5552.0000 1.0000
31.6000 5677.0000 1.0000
31.6200 5622.0000 1.0000
31.6400 5768.0000 1.0000
31.6600 5649.0000 1.0000
31.6800 5711.0000 1.0000
31.7000 5633.0000 1.0000
31.7200 5654.0000 1.0000
31.7400 5721.0000 1.0000
31.7600 5572.0000 1.0000
31.7800 5778.0000 1.0000
31.8000 5815.0000 1.0000
31.8200 5610.0000 1.0000
31.8400 5718.0000 1.0000
31.8600 5618.0000 1.0000
31.8800 5580.0000 1.0000
31.9000 5616.0000 1.0000
31.9200 5681.0000 1.0000
31.9400 5686.0000 1.0000
31.9600 5706.0000 1.0000
31.9800 5680.0000 1.0000
32.0000 5681.0000 1.0000
32.0200 5699.0000 1.0000
32.0400 5750.0000 1.0000
32.0600 5762.0000 1.0000
32.0800 5652.0000 1.0000
32.1000 5686.0000 1.0000
32.1200 5626.0000 1.0000
32.1400 5646.0000 1.0000
32.1600 5569.0000 1.0000
32.1800 5775.0000 1.0000
32.2000 5684.0000 1.0000
32.2200 5559.0000 1.0000
32.2400 5570.0000 1.0000
32.2600 5545.0000 1.0000
32.2800 5539.0000 1.0000
32.3000 5558.0000 1.0000
32.3200 5515.0000 1.0000
32.3400 5549.0000 1.0000
32.3600 5622.0000 1.0000
32.3800 5621.0000 1.0000
32.4000 5640.0000 1.0000
32.4200 5551.0000 1.0000
32.4400 5522.0000 1.0000
32.4600 5523.0000 1.0000
32.4800 5658.0000 1.0000
32.5000 5550.0000 1.0000
32.5200 5612.0000 1.0000
32.5400 5426.0000 1.0000
32.5600 5498.0000 1.0000
32.5800 5617.0000 1.0000
32.6000 5589.0000 1.0000
32.6200 5541.0000 1.0000
32.6400 5577.0000 1.0000
32.6600 5473.0000 1.0000
32.6800 5621.0000 1.0000
32.7000 5726.0000 1.0000
32.7200 5559.0000 1.0000
32.7400 5538.0000 1.0000
32.7600 5614.0000 1.0000
32.7800 5699.0000 1.0000
32.8000 5678.0000 1.0000
32.8200 5695.0000 1.0000
32.8400 5984.0000 1.0000
32.8600 5868.0000 1.0000
32.8800 5995.0000 1.0000
32.9000 5900.0000 1.0000
32.9200 6127.0000 1.0000
32.9400 6173.0000 1.0000
32.9600 6295.0000 1.0000
32.9800 6531.0000 1.0000
33.0000 6624.0000 1.0000
33.0200 7023.0000 1.0000
33.0400 7496.0000 1.0000
33.0600 7879.0000 1.0000
33.0800 8862.0000 1.0000
33.1000 10008.0000 1.0000
33.1200 11324.0000 1.0000
33.1400 12211.0000 1.0000
33.1600 12440.0000 1.0000
33.1800 11607.0000 1.0000
33.2000 10774.0000 1.0000
33.2200 10157.0000 1.0000
33.2400 9472.0000 1.0000
33.2600 8658.0000 1.0000
33.2800 7787.0000 1.0000
33.3000 6957.0000 1.0000
33.3200 6597.0000 1.0000
33.3400 6209.0000 1.0000
33.3600 5972.0000 1.0000
33.3800 5924.0000 1.0000
33.4000 5813.0000 1.0000
33.4200 5755.0000 1.0000
33.4400 5718.0000 1.0000
33.4600 5674.0000 1.0000
33.4800 5638.0000 1.0000
33.5000 5633.0000 1.0000
33.5200 5593.0000 1.0000
33.5400 5495.0000 1.0000
33.5600 5539.0000 1.0000
33.5800 5487.0000 1.0000
33.6000 5469.0000 1.0000
33.6200 5535.0000 1.0000
33.6400 5409.0000 1.0000
33.6600 5420.0000 1.0000
33.6800 5424.0000 1.0000
33.7000 5500.0000 1.0000
33.7200 5381.0000 1.0000
33.7400 5428.0000 1.0000
33.7600 5352.0000 1.0000
33.7800 5646.0000 1.0000
33.8000 5479.0000 1.0000
33.8200 5500.0000 1.0000
33.8400 5554.0000 1.0000
33.8600 5328.0000 1.0000
33.8800 5598.0000 1.0000
33.9000 5636.0000 1.0000
33.9200 5506.0000 1.0000
33.9400 5445.0000 1.0000
33.9600 5492.0000 1.0000
33.9800 5736.0000 1.0000
34.0000 5550.0000 1.0000
34.0200 5575.0000 1.0000
34.0400 5525.0000 1.0000
34.0600 5468.0000 1.0000
34.0800 5366.0000 1.0000
34.1000 5385.0000 1.0000
34.1200 5539.0000 1.0000
34.1400 5422.0000 1.0000
34.1600 5452.0000 1.0000
34.1800 5641.0000 1.0000
34.2000 5617.0000 1.0000
34.2200 5413.0000 1.0000
34.2400 5468.0000 1.0000
34.2600 5405.0000 1.0000
34.2800 5541.0000 1.0000
34.3000 5418.0000 1.0000
34.3200 5561.0000 1.0000
34.3400 5460.0000 1.0000
34.3600 5467.0000 1.0000
34.3800 5526.0000 1.0000
34.4000 5547.0000 1.0000
34.4200 5524.0000 1.0000
34.4400 5608.0000 1.0000
34.4600 5564.0000 1.0000
34.4800 5521.0000 1.0000
34.5000 5567.0000 1.0000
34.5200 5570.0000 1.0000
34.5400 5540.0000 1.0000
34.5600 5504.0000 1.0000
34.5800 5657.0000 1.0000
34.6000 5488.0000 1.0000
34.6200 5603.0000 1.0000
34.6400 5548.0000 1.0000
34.6600 5639.0000 1.0000
34.6800 5604.0000 1.0000
34.7000 5646.0000 1.0000
34.7200 5651.0000 1.0000
34.7400 5728.0000 1.0000
34.7600 5678.0000 1.0000
34.7800 5773.0000 1.0000
34.8000 5726.0000 1.0000
34.8200 5952.0000 1.0000
34.8400 5883.0000 1.0000
34.8600 6244.0000 1.0000
34.8800 6302.0000 1.0000
34.9000 6564.0000 1.0000
34.9200 6730.0000 1.0000
34.9400 6996.0000 1.0000
34.9600 7334.0000 1.0000
34.9800 7601.0000 1.0000
35.0000 8147.0000 1.0000
35.0200 8818.0000 1.0000
35.0400 9807.0000 1.0000
35.0600 11114.0000 1.0000
35.0800 12836.0000 1.0000
35.1000 14908.0000 1.0000
35.1200 17034.0000 1.0000
35.1400 17745.0000 1.0000
35.1600 16544.0000 1.0000
35.1800 14919.0000 1.0000
35.2000 13828.0000 1.0000
35.2200 13559.0000 1.0000
35.2400 12350.0000 1.0000
35.2600 11015.0000 1.0000
35.2800 9827.0000 1.0000
35.3000 8994.0000 1.0000
35.3200 8649.0000 1.0000
35.3400 8819.0000 1.0000
35.3600 8938.0000 1.0000
35.3800 9661.0000 1.0000
35.4000 10420.0000 1.0000
35.4200 11880.0000 1.0000
35.4400 13192.0000 1.0000
35.4600 14013.0000 1.0000
35.4800 14608.0000 1.0000
35.5000 14317.0000 1.0000
35.5200 14015.0000 1.0000
35.5400 13868.0000 1.0000
35.5600 14101.0000 1.0000
35.5800 14116.0000 1.0000
35.6000 13947.0000 1.0000
35.6200 13258.0000 1.0000
35.6400 12521.0000 1.0000
35.6600 11286.0000 1.0000
35.6800 10338.0000 1.0000
35.7000 9767.0000 1.0000
35.7200 9188.0000 1.0000
35.7400 8326.0000 1.0000
35.7600 7643.0000 1.0000
35.7800 7000.0000 1.0000
35.8000 6684.0000 1.0000
35.8200 6231.0000 1.0000
35.8400 6074.0000 1.0000
35.8600 5917.0000 1.0000
35.8800 5782.0000 1.0000
35.9000 5891.0000 1.0000
35.9200 5732.0000 1.0000
35.9400 5752.0000 1.0000
35.9600 5650.0000 1.0000
35.9800 5602.0000 1.0000
36.0000 5498.0000 1.0000
36.0200 5447.0000 1.0000
36.0400 5507.0000 1.0000
36.0600 5613.0000 1.0000
36.0800 5463.0000 1.0000
36.1000 5483.0000 1.0000
36.1200 5466.0000 1.0000
36.1400 5576.0000 1.0000
36.1600 5473.0000 1.0000
36.1800 5506.0000 1.0000
36.2000 5508.0000 1.0000
36.2200 5466.0000 1.0000
36.2400 5686.0000 1.0000
36.2600 5691.0000 1.0000
36.2800 5829.0000 1.0000
36.3000 5890.0000 1.0000
36.3200 6040.0000 1.0000
36.3400 6416.0000 1.0000
36.3600 6414.0000 1.0000
36.3800 6487.0000 1.0000
36.4000 6699.0000 1.0000
36.4200 7246.0000 1.0000
36.4400 8025.0000 1.0000
36.4600 8239.0000 1.0000
36.4800 9870.0000 1.0000
36.5000 12548.0000 1.0000
36.5200 17115.0000 1.0000
36.5400 18121.0000 1.0000
36.5600 14161.0000 1.0000
36.5800 10782.0000 1.0000
36.6000 10878.0000 1.0000
36.6200 12060.0000 1.0000
36.6400 11281.0000 1.0000
36.6600 8903.0000 1.0000
36.6800 7070.0000 1.0000
36.7000 6367.0000 1.0000
36.7200 5851.0000 1.0000
36.7400 5718.0000 1.0000
36.7600 5683.0000 1.0000
36.7800 5462.0000 1.0000
36.8000 5386.0000 1.0000
36.8200 5508.0000 1.0000
36.8400 5413.0000 1.0000
36.8600 5364.0000 1.0000
36.8800 5325.0000 1.0000
36.9000 5335.0000 1.0000
36.9200 5360.0000 1.0000
36.9400 5369.0000 1.0000
36.9600 5308.0000 1.0000
36.9800 5400.0000 1.0000
37.0000 5454.0000 1.0000
37.0200 5548.0000 1.0000
37.0400 5554.0000 1.0000
37.0600 5571.0000 1.0000
37.0800 5746.0000 1.0000
37.1000 5667.0000 1.0000
37.1200 5707.0000 1.0000
37.1400 5814.0000 1.0000
37.1600 5697.0000 1.0000
37.1800 5596.0000 1.0000
37.2000 5497.0000 1.0000
37.2200 5531.0000 1.0000
37.2400 5518.0000 1.0000
37.2600 5488.0000 1.0000
37.2800 5473.0000 1.0000
37.3000 5418.0000 1.0000
37.3200 5403.0000 1.0000
37.3400 5364.0000 1.0000
37.3600 5425.0000 1.0000
37.3800 5278.0000 1.0000
37.4000 5316.0000 1.0000
37.4200 5410.0000 1.0000
37.4400 5446.0000 1.0000
37.4600 5465.0000 1.0000
37.4800 5631.0000 1.0000
37.5000 5670.0000 1.0000
37.5200 5864.0000 1.0000
37.5400 5707.0000 1.0000
37.5600 5805.0000 1.0000
37.5800 6021.0000 1.0000
37.6000 6134.0000 1.0000
37.6200 6250.0000 1.0000
37.6400 6550.0000 1.0000
37.6600 6889.0000 1.0000
37.6800 7482.0000 1.0000
37.7000 8110.0000 1.0000
37.7200 9084.0000 1.0000
37.7400 9745.0000 1.0000
37.7600 10309.0000 1.0000
37.7800 10007.0000 1.0000
37.8000 9059.0000 1.0000
37.8200 8638.0000 1.0000
37.8400 8434.0000 1.0000
37.8600 8203.0000 1.0000
37.8800 7694.0000 1.0000
37.9000 7142.0000 1.0000
37.9200 6434.0000 1.0000
37.9400 6095.0000 1.0000
37.9600 5972.0000 1.0000
37.9800 5789.0000 1.0000
38.0000 5616.0000 1.0000
38.0200 5596.0000 1.0000
38.0400 5499.0000 1.0000
38.0600 5345.0000 1.0000
38.0800 5419.0000 1.0000
38.1000 5415.0000 1.0000
38.1200 5340.0000 1.0000
38.1400 5405.0000 1.0000
38.1600 5283.0000 1.0000
38.1800 5428.0000 1.0000
38.2000 5376.0000 1.0000
38.2200 5357.0000 1.0000
38.2400 5317.0000 1.0000
38.2600 5267.0000 1.0000
38.2800 5211.0000 1.0000
38.3000 5307.0000 1.0000
38.3200 5294.0000 1.0000
38.3400 5248.0000 1.0000
38.3600 5281.0000 1.0000
38.3800 5384.0000 1.0000
38.4000 5164.0000 1.0000
38.4200 5234.0000 1.0000
38.4400 5164.0000 1.0000
38.4600 5327.0000 1.0000
38.4800 5266.0000 1.0000
38.5000 5238.0000 1.0000
38.5200 5135.0000 1.0000
38.5400 5262.0000 1.0000
38.5600 5207.0000 1.0000
38.5800 5191.0000 1.0000
38.6000 5267.0000 1.0000
38.6200 5079.0000 1.0000
38.6400 5116.0000 1.0000
38.6600 5264.0000 1.0000
38.6800 5076.0000 1.0000
38.7000 5153.0000 1.0000
38.7200 5124.0000 1.0000
38.7400 5225.0000 1.0000
38.7600 5258.0000 1.0000
38.7800 5216.0000 1.0000
38.8000 5095.0000 1.0000
38.8200 5210.0000 1.0000
38.8400 5248.0000 1.0000
38.8600 5190.0000 1.0000
38.8800 5260.0000 1.0000
38.9000 5317.0000 1.0000
38.9200 5258.0000 1.0000
38.9400 5292.0000 1.0000
38.9600 5333.0000 1.0000
38.9800 5279.0000 1.0000
39.0000 5398.0000 1.0000
39.0200 5290.0000 1.0000
39.0400 5193.0000 1.0000
39.0600 5292.0000 1.0000
39.0800 5191.0000 1.0000
39.1000 5145.0000 1.0000
39.1200 5256.0000 1.0000
39.1400 5179.0000 1.0000
39.1600 5344.0000 1.0000
39.1800 5419.0000 1.0000
39.2000 5523.0000 1.0000
39.2200 5446.0000 1.0000
39.2400 5622.0000 1.0000
39.2600 5809.0000 1.0000
39.2800 5791.0000 1.0000
39.3000 5941.0000 1.0000
39.3200 6016.0000 1.0000
39.3400 6342.0000 1.0000
39.3600 6869.0000 1.0000
39.3800 7338.0000 1.0000
39.4000 8590.0000 1.0000
39.4200 10408.0000 1.0000
39.4400 13060.0000 1.0000
39.4600 14456.0000 1.0000
39.4800 11893.0000 1.0000
39.5000 9370.0000 1.0000
39.5200 8574.0000 1.0000
39.5400 9319.0000 1.0000
39.5600 9876.0000 1.0000
39.5800 8640.0000 1.0000
39.6000 6878.0000 1.0000
39.6200 5956.0000 1.0000
39.6400 5484.0000 1.0000
39.6600 5576.0000 1.0000
39.6800 5435.0000 1.0000
39.7000 5324.0000 1.0000
39.7200 5325.0000 1.0000
39.7400 5231.0000 1.0000
39.7600 5317.0000 1.0000
39.7800 5256.0000 1.0000
39.8000 5195.0000 1.0000
39.8200 5190.0000 1.0000
39.8400 5083.0000 1.0000
39.8600 5186.0000 1.0000
39.8800 5144.0000 1.0000
39.9000 5178.0000 1.0000
39.9200 5206.0000 1.0000
39.9400 5090.0000 1.0000
39.9600 5204.0000 1.0000
39.9800 5161.0000 1.0000
40.0000 5206.0000 1.0000
40.0200 5393.0000 1.0000
40.0400 5315.0000 1.0000
40.0600 5303.0000 1.0000
40.0800 5432.0000 1.0000
40.1000 5351.0000 1.0000
40.1200 5425.0000 1.0000
40.1400 5447.0000 1.0000
40.1600 5660.0000 1.0000
40.1800 5822.0000 1.0000
40.2000 6138.0000 1.0000
40.2200 6799.0000 1.0000
40.2400 8020.0000 1.0000
40.2600 9553.0000 1.0000
40.2800 10351.0000 1.0000
40.3000 9313.0000 1.0000
40.3200 7624.0000 1.0000
40.3400 7094.0000 1.0000
40.3600 7443.0000 1.0000
40.3800 7959.0000 1.0000
40.4000 7343.0000 1.0000
40.4200 6399.0000 1.0000
40.4400 5674.0000 1.0000
40.4600 5554.0000 1.0000
40.4800 5357.0000 1.0000
40.5000 5201.0000 1.0000
40.5200 5313.0000 1.0000
40.5400 5207.0000 1.0000
40.5600 5258.0000 1.0000
40.5800 5217.0000 1.0000
40.6000 5294.0000 1.0000
40.6200 5250.0000 1.0000
40.6400 5293.0000 1.0000
40.6600 5389.0000 1.0000
40.6800 5337.0000 1.0000
40.7000 5305.0000 1.0000
40.7200 5202.0000 1.0000
40.7400 5532.0000 1.0000
40.7600 5707.0000 1.0000
40.7800 5846.0000 1.0000
40.8000 5991.0000 1.0000
40.8200 6317.0000 1.0000
40.8400 6478.0000 1.0000
40.8600 6485.0000 1.0000
40.8800 6332.0000 1.0000
40.9000 6095.0000 1.0000
40.9200 6067.0000 1.0000
40.9400 5997.0000 1.0000
40.9600 5904.0000 1.0000
40.9800 5768.0000 1.0000
41.0000 5448.0000 1.0000
41.0200 5307.0000 1.0000
41.0400 5357.0000 1.0000
41.0600 5298.0000 1.0000
41.0800 5330.0000 1.0000
41.1000 5168.0000 1.0000
41.1200 5269.0000 1.0000
41.1400 5187.0000 1.0000
41.1600 5124.0000 1.0000
41.1800 5271.0000 1.0000
41.2000 5151.0000 1.0000
41.2200 5083.0000 1.0000
41.2400 5136.0000 1.0000
41.2600 5118.0000 1.0000
41.2800 5040.0000 1.0000
41.3000 5244.0000 1.0000
41.3200 5063.0000 1.0000
41.3400 5231.0000 1.0000
41.3600 5150.0000 1.0000
41.3800 5171.0000 1.0000
41.4000 5127.0000 1.0000
41.4200 5093.0000 1.0000
41.4400 5144.0000 1.0000
41.4600 5012.0000 1.0000
41.4800 5048.0000 1.0000
41.5000 5187.0000 1.0000
41.5200 5135.0000 1.0000
41.5400 5099.0000 1.0000
41.5600 5138.0000 1.0000
41.5800 4947.0000 1.0000
41.6000 5232.0000 1.0000
41.6200 5212.0000 1.0000
41.6400 5055.0000 1.0000
41.6600 5240.0000 1.0000
41.6800 5184.0000 1.0000
41.7000 5153.0000 1.0000
41.7200 5250.0000 1.0000
41.7400 5048.0000 1.0000
41.7600 5120.0000 1.0000
41.7800 5208.0000 1.0000
41.8000 5022.0000 1.0000
41.8200 5171.0000 1.0000
41.8400 5102.0000 1.0000
41.8600 5073.0000 1.0000
41.8800 5136.0000 1.0000
41.9000 5129.0000 1.0000
41.9200 5125.0000 1.0000
41.9400 5127.0000 1.0000
41.9600 4998.0000 1.0000
41.9800 5069.0000 1.0000
42.0000 5175.0000 1.0000
42.0200 5111.0000 1.0000
42.0400 5171.0000 1.0000
42.0600 5103.0000 1.0000
42.0800 5109.0000 1.0000
42.1000 5071.0000 1.0000
42.1200 5190.0000 1.0000
42.1400 5062.0000 1.0000
42.1600 5240.0000 1.0000
42.1800 5341.0000 1.0000
42.2000 5333.0000 1.0000
42.2200 5443.0000 1.0000
42.2400 5486.0000 1.0000
42.2600 5474.0000 1.0000
42.2800 5463.0000 1.0000
42.3000 5693.0000 1.0000
42.3200 5912.0000 1.0000
42.3400 6268.0000 1.0000
42.3600 6771.0000 1.0000
42.3800 7248.0000 1.0000
42.4000 8332.0000 1.0000
42.4200 9722.0000 1.0000
42.4400 10988.0000 1.0000
42.4600 9936.0000 1.0000
42.4800 7763.0000 1.0000
42.5000 7021.0000 1.0000
42.5200 7307.0000 1.0000
42.5400 7776.0000 1.0000
42.5600 7767.0000 1.0000
42.5800 6908.0000 1.0000
42.6000 6020.0000 1.0000
42.6200 5583.0000 1.0000
42.6400 5366.0000 1.0000
42.6600 5404.0000 1.0000
42.6800 5423.0000 1.0000
42.7000 5255.0000 1.0000
42.7200 5154.0000 1.0000
42.7400 5163.0000 1.0000
42.7600 5283.0000 1.0000
42.7800 5305.0000 1.0000
42.8000 5319.0000 1.0000
42.8200 5294.0000 1.0000
42.8400 5380.0000 1.0000
42.8600 5441.0000 1.0000
42.8800 5456.0000 1.0000
42.9000 5457.0000 1.0000
42.9200 5640.0000 1.0000
42.9400 5705.0000 1.0000
42.9600 5712.0000 1.0000
42.9800 5835.0000 1.0000
43.0000 6060.0000 1.0000
43.0200 6328.0000 1.0000
43.0400 6617.0000 1.0000
43.0600 7049.0000 1.0000
43.0800 7488.0000 1.0000
43.1000 7927.0000 1.0000
43.1200 7830.0000 1.0000
43.1400 8239.0000 1.0000
43.1600 8528.0000 1.0000
43.1800 8711.0000 1.0000
43.2000 9217.0000 1.0000
43.2200 9764.0000 1.0000
43.2400 10796.0000 1.0000
43.2600 11993.0000 1.0000
43.2800 13521.0000 1.0000
43.3000 15698.0000 1.0000
43.3200 17639.0000 1.0000
43.3400 18395.0000 1.0000
43.3600 16853.0000 1.0000
43.3800 14800.0000 1.0000
43.4000 13442.0000 1.0000
43.4200 13009.0000 1.0000
43.4400 12943.0000 1.0000
43.4600 12182.0000 1.0000
43.4800 10739.0000 1.0000
43.5000 9360.0000 1.0000
43.5200 8051.0000 1.0000
43.5400 7395.0000 1.0000
43.5600 6821.0000 1.0000
43.5800 6628.0000 1.0000
43.6000 6311.0000 1.0000
43.6200 6156.0000 1.0000
43.6400 5928.0000 1.0000
43.6600 5854.0000 1.0000
43.6800 5721.0000 1.0000
43.7000 5620.0000 1.0000
43.7200 5534.0000 1.0000
43.7400 5384.0000 1.0000
43.7600 5361.0000 1.0000
43.7800 5380.0000 1.0000
43.8000 5426.0000 1.0000
43.8200 5290.0000 1.0000
43.8400 5292.0000 1.0000
43.8600 5239.0000 1.0000
43.8800 5167.0000 1.0000
43.9000 5370.0000 1.0000
43.9200 5012.0000 1.0000
43.9400 5101.0000 1.0000
43.9600 5080.0000 1.0000
43.9800 5156.0000 1.0000
44.0000 5208.0000 1.0000
44.0200 5020.0000 1.0000
44.0400 5127.0000 1.0000
44.0600 5162.0000 1.0000
44.0800 5080.0000 1.0000
44.1000 5054.0000 1.0000
44.1200 5048.0000 1.0000
44.1400 4979.0000 1.0000
44.1600 5081.0000 1.0000
44.1800 5130.0000 1.0000
44.2000 5105.0000 1.0000
44.2200 5024.0000 1.0000
44.2400 5007.0000 1.0000
44.2600 5036.0000 1.0000
44.2800 5009.0000 1.0000
44.3000 4991.0000 1.0000
44.3200 4918.0000 1.0000
44.3400 4932.0000 1.0000
44.3600 4982.0000 1.0000
44.3800 5063.0000 1.0000
44.4000 5085.0000 1.0000
44.4200 4934.0000 1.0000
44.4400 4966.0000 1.0000
44.4600 4965.0000 1.0000
44.4800 5008.0000 1.0000
44.5000 4922.0000 1.0000
44.5200 5005.0000 1.0000
44.5400 5067.0000 1.0000
44.5600 4932.0000 1.0000
44.5800 4989.0000 1.0000
44.6000 4954.0000 1.0000
44.6200 4981.0000 1.0000
44.6400 5039.0000 1.0000
44.6600 4948.0000 1.0000
44.6800 5039.0000 1.0000
44.7000 5070.0000 1.0000
44.7200 4904.0000 1.0000
44.7400 4991.0000 1.0000
44.7600 5104.0000 1.0000
44.7800 4997.0000 1.0000
44.8000 4982.0000 1.0000
44.8200 5032.0000 1.0000
44.8400 5069.0000 1.0000
44.8600 5032.0000 1.0000
44.8800 5062.0000 1.0000
44.9000 5066.0000 1.0000
44.9200 5035.0000 1.0000
44.9400 4991.0000 1.0000
44.9600 5060.0000 1.0000
44.9800 5055.0000 1.0000
45.0000 5071.0000 1.0000
45.0200 4994.0000 1.0000
45.0400 5020.0000 1.0000
45.0600 4975.0000 1.0000
45.0800 4972.0000 1.0000
45.1000 4850.0000 1.0000
45.1200 5116.0000 1.0000
45.1400 4853.0000 1.0000
45.1600 4926.0000 1.0000
45.1800 4947.0000 1.0000
45.2000 4930.0000 1.0000
45.2200 4884.0000 1.0000
45.2400 5040.0000 1.0000
45.2600 4881.0000 1.0000
45.2800 4957.0000 1.0000
45.3000 4947.0000 1.0000
45.3200 4979.0000 1.0000
45.3400 4960.0000 1.0000
45.3600 5035.0000 1.0000
45.3800 4968.0000 1.0000
45.4000 4997.0000 1.0000
45.4200 5046.0000 1.0000
45.4400 4999.0000 1.0000
45.4600 4970.0000 1.0000
45.4800 4983.0000 1.0000
45.5000 5040.0000 1.0000
45.5200 5014.0000 1.0000
45.5400 5066.0000 1.0000
45.5600 5236.0000 1.0000
45.5800 5146.0000 1.0000
45.6000 5205.0000 1.0000
45.6200 5404.0000 1.0000
45.6400 5362.0000 1.0000
45.6600 5456.0000 1.0000
45.6800 5669.0000 1.0000
45.7000 6101.0000 1.0000
45.7200 6847.0000 1.0000
45.7400 8106.0000 1.0000
45.7600 9282.0000 1.0000
45.7800 10082.0000 1.0000
45.8000 9348.0000 1.0000
45.8200 7762.0000 1.0000
45.8400 6874.0000 1.0000
45.8600 6975.0000 1.0000
45.8800 7443.0000 1.0000
45.9000 7774.0000 1.0000
45.9200 7276.0000 1.0000
45.9400 6194.0000 1.0000
45.9600 5648.0000 1.0000
45.9800 5253.0000 1.0000
46.0000 5028.0000 1.0000
46.0200 5123.0000 1.0000
46.0400 4990.0000 1.0000
46.0600 5139.0000 1.0000
46.0800 5109.0000 1.0000
46.1000 5036.0000 1.0000
46.1200 5085.0000 1.0000
46.1400 5111.0000 1.0000
46.1600 5026.0000 1.0000
46.1800 5018.0000 1.0000
46.2000 5021.0000 1.0000
46.2200 4929.0000 1.0000
46.2400 4999.0000 1.0000
46.2600 4938.0000 1.0000
46.2800 5041.0000 1.0000
46.3000 5047.0000 1.0000
46.3200 5079.0000 1.0000
46.3400 5000.0000 1.0000
46.3600 5082.0000 1.0000
46.3800 4916.0000 1.0000
46.4000 4908.0000 1.0000
46.4200 5121.0000 1.0000
46.4400 4902.0000 1.0000
46.4600 4795.0000 1.0000
46.4800 4929.0000 1.0000
46.5000 4813.0000 1.0000
46.5200 4894.0000 1.0000
46.5400 4901.0000 1.0000
46.5600 4917.0000 1.0000
46.5800 4954.0000 1.0000
46.6000 5008.0000 1.0000
46.6200 4926.0000 1.0000
46.6400 4898.0000 1.0000
46.6600 4847.0000 1.0000
46.6800 4850.0000 1.0000
46.7000 4894.0000 1.0000
46.7200 4953.0000 1.0000
46.7400 4937.0000 1.0000
46.7600 4892.0000 1.0000
46.7800 4866.0000 1.0000
46.8000 4790.0000 1.0000
46.8200 4950.0000 1.0000
46.8400 4877.0000 1.0000
46.8600 4792.0000 1.0000
46.8800 4880.0000 1.0000
46.9000 4839.0000 1.0000
46.9200 4913.0000 1.0000
46.9400 4835.0000 1.0000
46.9600 4759.0000 1.0000
46.9800 4818.0000 1.0000
47.0000 4779.0000 1.0000
47.0200 4900.0000 1.0000
47.0400 4959.0000 1.0000
47.0600 4932.0000 1.0000
47.0800 4788.0000 1.0000
47.1000 5024.0000 1.0000
47.1200 5050.0000 1.0000
47.1400 5065.0000 1.0000
47.1600 5015.0000 1.0000
47.1800 4962.0000 1.0000
47.2000 4966.0000 1.0000
47.2200 4814.0000 1.0000
47.2400 4866.0000 1.0000
47.2600 4968.0000 1.0000
47.2800 4901.0000 1.0000
47.3000 4823.0000 1.0000
47.3200 4839.0000 1.0000
47.3400 4757.0000 1.0000
47.3600 4947.0000 1.0000
47.3800 4964.0000 1.0000
47.4000 4934.0000 1.0000
47.4200 4904.0000 1.0000
47.4400 4842.0000 1.0000
47.4600 4836.0000 1.0000
47.4800 4778.0000 1.0000
47.5000 4789.0000 1.0000
47.5200 4795.0000 1.0000
47.5400 4912.0000 1.0000
47.5600 4918.0000 1.0000
47.5800 4876.0000 1.0000
47.6000 4828.0000 1.0000
47.6200 4968.0000 1.0000
47.6400 4794.0000 1.0000
47.6600 4946.0000 1.0000
47.6800 4848.0000 1.0000
47.7000 4895.0000 1.0000
47.7200 4897.0000 1.0000
47.7400 4885.0000 1.0000
47.7600 4846.0000 1.0000
47.7800 4842.0000 1.0000
47.8000 4865.0000 1.0000
47.8200 4934.0000 1.0000
47.8400 4769.0000 1.0000
47.8600 4855.0000 1.0000
47.8800 4828.0000 1.0000
47.9000 4930.0000 1.0000
47.9200 4772.0000 1.0000
47.9400 4892.0000 1.0000
47.9600 4726.0000 1.0000
47.9800 4870.0000 1.0000
48.0000 4860.0000 1.0000
48.0200 4876.0000 1.0000
48.0400 4969.0000 1.0000
48.0600 4937.0000 1.0000
48.0800 4810.0000 1.0000
48.1000 4775.0000 1.0000
48.1200 5003.0000 1.0000
48.1400 4803.0000 1.0000
48.1600 4957.0000 1.0000
48.1800 4902.0000 1.0000
48.2000 4816.0000 1.0000
48.2200 4739.0000 1.0000
48.2400 4876.0000 1.0000
48.2600 4857.0000 1.0000
48.2800 4907.0000 1.0000
48.3000 4849.0000 1.0000
48.3200 4937.0000 1.0000
48.3400 4875.0000 1.0000
48.3600 4962.0000 1.0000
48.3800 4730.0000 1.0000
48.4000 4855.0000 1.0000
48.4200 4903.0000 1.0000
48.4400 4908.0000 1.0000
48.4600 4880.0000 1.0000
48.4800 5063.0000 1.0000
48.5000 4966.0000 1.0000
48.5200 4919.0000 1.0000
48.5400 5022.0000 1.0000
48.5600 4838.0000 1.0000
48.5800 4755.0000 1.0000
48.6000 4958.0000 1.0000
48.6200 4875.0000 1.0000
48.6400 4887.0000 1.0000
48.6600 4793.0000 1.0000
48.6800 4887.0000 1.0000
48.7000 4953.0000 1.0000
48.7200 5018.0000 1.0000
48.7400 5093.0000 1.0000
48.7600 5055.0000 1.0000
48.7800 4912.0000 1.0000
48.8000 4854.0000 1.0000
48.8200 4896.0000 1.0000
48.8400 4931.0000 1.0000
48.8600 4791.0000 1.0000
48.8800 4908.0000 1.0000
48.9000 4797.0000 1.0000
48.9200 4894.0000 1.0000
48.9400 4937.0000 1.0000
48.9600 4955.0000 1.0000
48.9800 4923.0000 1.0000
49.0000 4960.0000 1.0000
49.0200 5029.0000 1.0000
49.0400 4930.0000 1.0000
49.0600 5006.0000 1.0000
49.0800 4898.0000 1.0000
49.1000 4968.0000 1.0000
49.1200 4977.0000 1.0000
49.1400 5031.0000 1.0000
49.1600 5060.0000 1.0000
49.1800 5070.0000 1.0000
49.2000 5152.0000 1.0000
49.2200 5152.0000 1.0000
49.2400 5202.0000 1.0000
49.2600 5138.0000 1.0000
49.2800 5223.0000 1.0000
49.3000 5401.0000 1.0000
49.3200 5445.0000 1.0000
49.3400 5659.0000 1.0000
49.3600 5672.0000 1.0000
49.3800 5949.0000 1.0000
49.4000 6303.0000 1.0000
49.4200 6900.0000 1.0000
49.4400 7144.0000 1.0000
49.4600 7110.0000 1.0000
49.4800 6752.0000 1.0000
49.5000 6460.0000 1.0000
49.5200 6155.0000 1.0000
49.5400 6229.0000 1.0000
49.5600 6390.0000 1.0000
49.5800 6342.0000 1.0000
49.6000 6147.0000 1.0000
49.6200 5784.0000 1.0000
49.6400 5607.0000 1.0000
49.6600 5295.0000 1.0000
49.6800 5230.0000 1.0000
49.7000 5219.0000 1.0000
49.7200 5194.0000 1.0000
49.7400 5187.0000 1.0000
49.7600 5218.0000 1.0000
49.7800 5100.0000 1.0000
49.8000 5190.0000 1.0000
49.8200 5209.0000 1.0000
49.8400 5383.0000 1.0000
49.8600 5403.0000 1.0000
49.8800 5598.0000 1.0000
49.9000 5713.0000 1.0000
49.9200 5884.0000 1.0000
49.9400 5810.0000 1.0000
49.9600 5985.0000 1.0000
49.9800 6177.0000 1.0000
50.0000 6403.0000 1.0000
50.0200 7120.0000 1.0000
50.0400 8072.0000 1.0000
50.0600 9880.0000 1.0000
50.0800 12892.0000 1.0000
50.1000 17725.0000 1.0000
50.1200 22283.0000 1.0000
50.1400 20287.0000 1.0000
50.1600 14358.0000 1.0000
50.1800 10225.0000 1.0000
50.2000 9711.0000 1.0000
50.2200 10690.0000 1.0000
50.2400 12783.0000 1.0000
50.2600 14178.0000 1.0000
50.2800 11973.0000 1.0000
50.3000 8770.0000 1.0000
50.3200 6696.0000 1.0000
50.3400 6015.0000 1.0000
50.3600 5581.0000 1.0000
50.3800 5435.0000 1.0000
50.4000 5470.0000 1.0000
50.4200 5349.0000 1.0000
50.4400 5165.0000 1.0000
50.4600 5093.0000 1.0000
50.4800 5175.0000 1.0000
50.5000 5131.0000 1.0000
50.5200 5012.0000 1.0000
50.5400 5016.0000 1.0000
50.5600 5068.0000 1.0000
50.5800 5066.0000 1.0000
50.6000 5185.0000 1.0000
50.6200 5144.0000 1.0000
50.6400 5073.0000 1.0000
50.6600 5103.0000 1.0000
50.6800 4978.0000 1.0000
50.7000 4979.0000 1.0000
50.7200 5179.0000 1.0000
50.7400 5032.0000 1.0000
50.7600 4978.0000 1.0000
50.7800 4947.0000 1.0000
50.8000 4981.0000 1.0000
50.8200 4896.0000 1.0000
50.8400 4922.0000 1.0000
50.8600 4903.0000 1.0000
50.8800 4778.0000 1.0000
50.9000 4899.0000 1.0000
50.9200 4961.0000 1.0000
50.9400 4850.0000 1.0000
50.9600 4924.0000 1.0000
50.9800 4867.0000 1.0000
51.0000 4872.0000 1.0000
51.0200 4796.0000 1.0000
51.0400 4937.0000 1.0000
51.0600 4921.0000 1.0000
51.0800 4992.0000 1.0000
51.1000 4875.0000 1.0000
51.1200 5030.0000 1.0000
51.1400 4785.0000 1.0000
51.1600 5014.0000 1.0000
51.1800 4852.0000 1.0000
51.2000 4892.0000 1.0000
51.2200 4903.0000 1.0000
51.2400 4960.0000 1.0000
51.2600 4870.0000 1.0000
51.2800 4884.0000 1.0000
51.3000 4806.0000 1.0000
51.3200 4941.0000 1.0000
51.3400 4923.0000 1.0000
51.3600 4905.0000 1.0000
51.3800 4941.0000 1.0000
51.4000 4985.0000 1.0000
51.4200 4930.0000 1.0000
51.4400 4835.0000 1.0000
51.4600 4973.0000 1.0000
51.4800 4894.0000 1.0000
51.5000 5026.0000 1.0000
51.5200 5011.0000 1.0000
51.5400 5039.0000 1.0000
51.5600 4949.0000 1.0000
51.5800 4803.0000 1.0000
51.6000 4859.0000 1.0000
51.6200 4937.0000 1.0000
51.6400 4958.0000 1.0000
51.6600 4888.0000 1.0000
51.6800 4777.0000 1.0000
51.7000 5049.0000 1.0000
51.7200 5036.0000 1.0000
51.7400 4849.0000 1.0000
51.7600 4918.0000 1.0000
51.7800 4961.0000 1.0000
51.8000 4894.0000 1.0000
51.8200 4775.0000 1.0000
51.8400 4843.0000 1.0000
51.8600 4936.0000 1.0000
51.8800 4910.0000 1.0000
51.9000 4850.0000 1.0000
51.9200 4921.0000 1.0000
51.9400 4959.0000 1.0000
51.9600 4893.0000 1.0000
51.9800 4827.0000 1.0000
52.0000 5031.0000 1.0000
52.0200 5025.0000 1.0000
52.0400 5009.0000 1.0000
52.0600 5049.0000 1.0000
52.0800 5154.0000 1.0000
52.1000 5013.0000 1.0000
52.1200 4882.0000 1.0000
52.1400 5208.0000 1.0000
52.1600 5125.0000 1.0000
52.1800 5168.0000 1.0000
52.2000 5233.0000 1.0000
52.2200 5344.0000 1.0000
52.2400 5282.0000 1.0000
52.2600 5394.0000 1.0000
52.2800 5425.0000 1.0000
52.3000 5424.0000 1.0000
52.3200 5564.0000 1.0000
52.3400 5702.0000 1.0000
52.3600 5849.0000 1.0000
52.3800 6052.0000 1.0000
52.4000 6191.0000 1.0000
52.4200 6574.0000 1.0000
52.4400 7082.0000 1.0000
52.4600 7797.0000 1.0000
52.4800 8530.0000 1.0000
52.5000 9345.0000 1.0000
52.5200 10187.0000 1.0000
52.5400 10144.0000 1.0000
52.5600 9496.0000 1.0000
52.5800 8672.0000 1.0000
52.6000 8023.0000 1.0000
52.6200 7619.0000 1.0000
52.6400 8013.0000 1.0000
52.6600 8172.0000 1.0000
52.6800 7924.0000 1.0000
52.7000 7532.0000 1.0000
52.7200 6763.0000 1.0000
52.7400 6167.0000 1.0000
52.7600 5914.0000 1.0000
52.7800 5595.0000 1.0000
52.8000 5515.0000 1.0000
52.8200 5500.0000 1.0000
52.8400 5344.0000 1.0000
52.8600 5245.0000 1.0000
52.8800 5016.0000 1.0000
52.9000 5096.0000 1.0000
52.9200 5146.0000 1.0000
52.9400 5094.0000 1.0000
52.9600 5012.0000 1.0000
52.9800 5045.0000 1.0000
53.0000 5004.0000 1.0000
53.0200 5015.0000 1.0000
53.0400 4832.0000 1.0000
53.0600 4961.0000 1.0000
53.0800 5175.0000 1.0000
53.1000 5046.0000 1.0000
53.1200 4873.0000 1.0000
53.1400 4852.0000 1.0000
53.1600 5119.0000 1.0000
53.1800 4934.0000 1.0000
53.2000 5036.0000 1.0000
53.2200 4816.0000 1.0000
53.2400 5042.0000 1.0000
53.2600 5050.0000 1.0000
53.2800 4938.0000 1.0000
53.3000 5033.0000 1.0000
53.3200 5007.0000 1.0000
53.3400 5122.0000 1.0000
53.3600 5131.0000 1.0000
53.3800 5083.0000 1.0000
53.4000 5232.0000 1.0000
53.4200 5294.0000 1.0000
53.4400 5283.0000 1.0000
53.4600 5632.0000 1.0000
53.4800 5554.0000 1.0000
53.5000 5575.0000 1.0000
53.5200 5583.0000 1.0000
53.5400 5386.0000 1.0000
53.5600 5431.0000 1.0000
53.5800 5404.0000 1.0000
53.6000 5401.0000 1.0000
53.6200 5452.0000 1.0000
53.6400 5350.0000 1.0000
53.6600 5479.0000 1.0000
53.6800 5266.0000 1.0000
53.7000 5289.0000 1.0000
53.7200 5102.0000 1.0000
53.7400 5133.0000 1.0000
53.7600 5099.0000 1.0000
53.7800 5133.0000 1.0000
53.8000 5160.0000 1.0000
53.8200 5193.0000 1.0000
53.8400 5175.0000 1.0000
53.8600 5209.0000 1.0000
53.8800 5150.0000 1.0000
53.9000 5296.0000 1.0000
53.9200 5414.0000 1.0000
53.9400 5479.0000 1.0000
53.9600 5786.0000 1.0000
53.9800 6183.0000 1.0000
54.0000 6770.0000 1.0000
54.0200 7038.0000 1.0000
54.0400 7570.0000 1.0000
54.0600 7548.0000 1.0000
54.0800 7236.0000 1.0000
54.1000 6984.0000 1.0000
54.1200 6529.0000 1.0000
54.1400 6267.0000 1.0000
54.1600 6259.0000 1.0000
54.1800 6434.0000 1.0000
54.2000 6418.0000 1.0000
54.2200 6168.0000 1.0000
54.2400 5893.0000 1.0000
54.2600 5544.0000 1.0000
54.2800 5403.0000 1.0000
54.3000 5344.0000 1.0000
54.3200 5172.0000 1.0000
54.3400 5119.0000 1.0000
54.3600 4964.0000 1.0000
54.3800 5233.0000 1.0000
54.4000 5041.0000 1.0000
54.4200 5109.0000 1.0000
54.4400 4763.0000 1.0000
54.4600 4986.0000 1.0000
54.4800 4878.0000 1.0000
54.5000 5045.0000 1.0000
54.5200 4975.0000 1.0000
54.5400 4961.0000 1.0000
54.5600 4916.0000 1.0000
54.5800 4973.0000 1.0000
54.6000 4934.0000 1.0000
54.6200 5074.0000 1.0000
54.6400 5104.0000 1.0000
54.6600 5054.0000 1.0000
54.6800 5234.0000 1.0000
54.7000 5132.0000 1.0000
54.7200 5341.0000 1.0000
54.7400 5477.0000 1.0000
54.7600 5658.0000 1.0000
54.7800 6184.0000 1.0000
54.8000 6843.0000 1.0000
54.8200 7766.0000 1.0000
54.8400 9268.0000 1.0000
54.8600 10203.0000 1.0000
54.8800 9571.0000 1.0000
54.9000 7949.0000 1.0000
54.9200 6432.0000 1.0000
54.9400 6182.0000 1.0000
54.9600 6499.0000 1.0000
54.9800 6921.0000 1.0000
55.0000 7533.0000 1.0000
55.0200 7497.0000 1.0000
55.0400 6922.0000 1.0000
55.0600 5894.0000 1.0000
55.0800 5372.0000 1.0000
55.1000 5258.0000 1.0000
55.1200 5111.0000 1.0000
55.1400 5223.0000 1.0000
55.1600 5028.0000 1.0000
55.1800 5149.0000 1.0000
55.2000 5270.0000 1.0000
55.2200 5333.0000 1.0000
55.2400 5375.0000 1.0000
55.2600 5564.0000 1.0000
55.2800 5819.0000 1.0000
55.3000 6237.0000 1.0000
55.3200 6252.0000 1.0000
55.3400 5946.0000 1.0000
55.3600 5540.0000 1.0000
55.3800 5325.0000 1.0000
55.4000 5297.0000 1.0000
55.4200 5300.0000 1.0000
55.4400 5525.0000 1.0000
55.4600 5710.0000 1.0000
55.4800 5579.0000 1.0000
55.5000 5202.0000 1.0000
55.5200 5154.0000 1.0000
55.5400 5009.0000 1.0000
55.5600 5019.0000 1.0000
55.5800 5002.0000 1.0000
55.6000 4866.0000 1.0000
55.6200 4918.0000 1.0000
55.6400 4880.0000 1.0000
55.6600 4928.0000 1.0000
55.6800 4987.0000 1.0000
55.7000 4743.0000 1.0000
55.7200 4914.0000 1.0000
55.7400 4949.0000 1.0000
55.7600 4828.0000 1.0000
55.7800 4952.0000 1.0000
55.8000 4794.0000 1.0000
55.8200 4812.0000 1.0000
55.8400 4874.0000 1.0000
55.8600 4985.0000 1.0000
55.8800 4930.0000 1.0000
55.9000 4905.0000 1.0000
55.9200 4920.0000 1.0000
55.9400 4882.0000 1.0000
55.9600 4926.0000 1.0000
55.9800 4939.0000 1.0000
56.0000 4928.0000 1.0000
56.0200 4933.0000 1.0000
56.0400 4813.0000 1.0000
56.0600 4754.0000 1.0000
56.0800 4882.0000 1.0000
56.1000 4944.0000 1.0000
56.1200 4998.0000 1.0000
56.1400 5025.0000 1.0000
56.1600 4851.0000 1.0000
56.1800 4919.0000 1.0000
56.2000 4904.0000 1.0000
56.2200 4814.0000 1.0000
56.2400 4827.0000 1.0000
56.2600 4978.0000 1.0000
56.2800 4802.0000 1.0000
56.3000 4842.0000 1.0000
56.3200 4936.0000 1.0000
56.3400 4930.0000 1.0000
56.3600 4929.0000 1.0000
56.3800 4829.0000 1.0000
56.4000 4969.0000 1.0000
56.4200 4844.0000 1.0000
56.4400 4856.0000 1.0000
56.4600 4887.0000 1.0000
56.4800 5002.0000 1.0000
56.5000 4896.0000 1.0000
56.5200 4949.0000 1.0000
56.5400 4949.0000 1.0000
56.5600 5008.0000 1.0000
56.5800 4962.0000 1.0000
56.6000 4928.0000 1.0000
56.6200 4882.0000 1.0000
56.6400 5022.0000 1.0000
56.6600 5019.0000 1.0000
56.6800 5001.0000 1.0000
56.7000 4969.0000 1.0000
56.7200 4986.0000 1.0000
56.7400 5046.0000 1.0000
56.7600 5206.0000 1.0000
56.7800 5129.0000 1.0000
56.8000 5128.0000 1.0000
56.8200 5261.0000 1.0000
56.8400 5258.0000 1.0000
56.8600 5258.0000 1.0000
56.8800 5443.0000 1.0000
56.9000 5519.0000 1.0000
56.9200 5851.0000 1.0000
56.9400 6097.0000 1.0000
56.9600 6517.0000 1.0000
56.9800 6810.0000 1.0000
57.0000 7007.0000 1.0000
57.0200 7109.0000 1.0000
57.0400 7038.0000 1.0000
57.0600 6868.0000 1.0000
57.0800 6805.0000 1.0000
57.1000 6946.0000 1.0000
57.1200 6742.0000 1.0000
57.1400 7067.0000 1.0000
57.1600 7049.0000 1.0000
57.1800 7025.0000 1.0000
57.2000 6994.0000 1.0000
57.2200 7164.0000 1.0000
57.2400 7061.0000 1.0000
57.2600 7085.0000 1.0000
57.2800 7257.0000 1.0000
57.3000 7251.0000 1.0000
57.3200 7645.0000 1.0000
57.3400 8040.0000 1.0000
57.3600 8659.0000 1.0000
57.3800 9420.0000 1.0000
57.4000 10439.0000 1.0000
57.4200 12018.0000 1.0000
57.4400 13769.0000 1.0000
57.4600 15333.0000 1.0000
57.4800 15823.0000 1.0000
57.5000 14939.0000 1.0000
57.5200 12932.0000 1.0000
57.5400 11425.0000 1.0000
57.5600 11092.0000 1.0000
57.5800 11151.0000 1.0000
57.6000 11237.0000 1.0000
57.6200 11558.0000 1.0000
57.6400 11336.0000 1.0000
57.6600 10362.0000 1.0000
57.6800 9168.0000 1.0000
57.7000 7859.0000 1.0000
57.7200 7277.0000 1.0000
57.7400 6801.0000 1.0000
57.7600 6525.0000 1.0000
57.7800 6261.0000 1.0000
57.8000 5993.0000 1.0000
57.8200 5791.0000 1.0000
57.8400 5695.0000 1.0000
57.8600 5388.0000 1.0000
57.8800 5478.0000 1.0000
57.9000 5412.0000 1.0000
57.9200 5426.0000 1.0000
57.9400 5264.0000 1.0000
57.9600 5240.0000 1.0000
57.9800 5287.0000 1.0000
58.0000 5153.0000 1.0000
58.0200 5219.0000 1.0000
58.0400 5106.0000 1.0000
58.0600 5259.0000 1.0000
58.0800 5100.0000 1.0000
58.1000 5025.0000 1.0000
58.1200 5072.0000 1.0000
58.1400 4964.0000 1.0000
58.1600 5012.0000 1.0000
58.1800 4879.0000 1.0000
58.2000 4984.0000 1.0000
58.2200 4888.0000 1.0000
58.2400 4940.0000 1.0000
58.2600 4963.0000 1.0000
58.2800 4935.0000 1.0000
58.3000 4925.0000 1.0000
58.3200 4897.0000 1.0000
58.3400 4907.0000 1.0000
58.3600 4889.0000 1.0000
58.3800 5043.0000 1.0000
58.4000 4794.0000 1.0000
58.4200 4889.0000 1.0000
58.4400 4927.0000 1.0000
58.4600 4949.0000 1.0000
58.4800 5049.0000 1.0000
58.5000 4901.0000 1.0000
58.5200 4815.0000 1.0000
58.5400 4798.0000 1.0000
58.5600 4849.0000 1.0000
58.5800 4858.0000 1.0000
58.6000 4848.0000 1.0000
58.6200 4818.0000 1.0000
58.6400 4841.0000 1.0000
58.6600 4810.0000 1.0000
58.6800 4990.0000 1.0000
58.7000 4964.0000 1.0000
58.7200 4876.0000 1.0000
58.7400 4932.0000 1.0000
58.7600 4865.0000 1.0000
58.7800 4866.0000 1.0000
58.8000 4893.0000 1.0000
58.8200 4938.0000 1.0000
58.8400 4863.0000 1.0000
58.8600 4799.0000 1.0000
58.8800 4923.0000 1.0000
58.9000 4860.0000 1.0000
58.9200 4925.0000 1.0000
58.9400 4792.0000 1.0000
58.9600 4802.0000 1.0000
58.9800 4828.0000 1.0000
59.0000 4830.0000 1.0000
59.0200 4894.0000 1.0000
59.0400 4913.0000 1.0000
59.0600 4737.0000 1.0000
59.0800 4850.0000 1.0000
59.1000 4812.0000 1.0000
59.1200 4887.0000 1.0000
59.1400 4881.0000 1.0000
59.1600 4874.0000 1.0000
59.1800 4883.0000 1.0000
59.2000 4854.0000 1.0000
59.2200 4674.0000 1.0000
59.2400 4873.0000 1.0000
59.2600 4797.0000 1.0000
59.2800 4822.0000 1.0000
59.3000 4929.0000 1.0000
59.3200 4847.0000 1.0000
59.3400 4997.0000 1.0000
59.3600 4858.0000 1.0000
59.3800 4990.0000 1.0000
59.4000 5017.0000 1.0000
59.4200 4977.0000 1.0000
59.4400 4919.0000 1.0000
59.4600 4959.0000 1.0000
59.4800 4907.0000 1.0000
59.5000 5003.0000 1.0000
59.5200 4954.0000 1.0000
59.5400 4957.0000 1.0000
59.5600 5132.0000 1.0000
59.5800 4972.0000 1.0000
59.6000 5039.0000 1.0000
59.6200 5069.0000 1.0000
59.6400 5168.0000 1.0000
59.6600 5283.0000 1.0000
59.6800 5413.0000 1.0000
59.7000 5517.0000 1.0000
59.7200 5491.0000 1.0000
59.7400 5612.0000 1.0000
59.7600 5623.0000 1.0000
59.7800 5777.0000 1.0000
59.8000 5938.0000 1.0000
59.8200 6025.0000 1.0000
59.8400 6725.0000 1.0000
59.8600 7639.0000 1.0000
59.8800 9452.0000 1.0000
59.9000 12009.0000 1.0000
59.9200 14474.0000 1.0000
59.9400 15466.0000 1.0000
59.9600 13756.0000 1.0000
59.9800 10224.0000 1.0000
60.0000 7984.0000 1.0000
60.0200 6986.0000 1.0000
60.0400 7601.0000 1.0000
60.0600 8397.0000 1.0000
60.0800 9792.0000 1.0000
60.1000 10245.0000 1.0000
60.1200 9629.0000 1.0000
60.1400 7962.0000 1.0000
60.1600 6482.0000 1.0000
60.1800 5690.0000 1.0000
60.2000 5392.0000 1.0000
60.2200 5271.0000 1.0000
60.2400 5063.0000 1.0000
60.2600 5251.0000 1.0000
60.2800 5180.0000 1.0000
60.3000 5005.0000 1.0000
60.3200 4996.0000 1.0000
60.3400 4894.0000 1.0000
60.3600 4882.0000 1.0000
60.3800 5070.0000 1.0000
60.4000 4820.0000 1.0000
60.4200 4997.0000 1.0000
60.4400 4978.0000 1.0000
60.4600 4864.0000 1.0000
60.4800 4866.0000 1.0000
60.5000 4981.0000 1.0000
60.5200 5017.0000 1.0000
60.5400 4992.0000 1.0000
60.5600 4953.0000 1.0000
60.5800 5018.0000 1.0000
60.6000 4861.0000 1.0000
60.6200 4860.0000 1.0000
60.6400 5000.0000 1.0000
60.6600 4920.0000 1.0000
60.6800 4921.0000 1.0000
60.7000 4865.0000 1.0000
60.7200 4873.0000 1.0000
60.7400 5000.0000 1.0000
60.7600 4975.0000 1.0000
60.7800 5053.0000 1.0000
60.8000 4958.0000 1.0000
60.8200 5003.0000 1.0000
60.8400 5091.0000 1.0000
60.8600 4936.0000 1.0000
60.8800 5005.0000 1.0000
60.9000 5068.0000 1.0000
60.9200 5008.0000 1.0000
60.9400 5057.0000 1.0000
60.9600 5156.0000 1.0000
60.9800 5088.0000 1.0000
61.0000 5042.0000 1.0000
61.0200 5123.0000 1.0000
61.0400 5129.0000 1.0000
61.0600 5170.0000 1.0000
61.0800 5336.0000 1.0000
61.1000 5325.0000 1.0000
61.1200 5269.0000 1.0000
61.1400 5299.0000 1.0000
61.1600 5253.0000 1.0000
61.1800 5265.0000 1.0000
61.2000 5449.0000 1.0000
61.2200 5411.0000 1.0000
61.2400 5636.0000 1.0000
61.2600 5876.0000 1.0000
61.2800 5851.0000 1.0000
61.3000 5696.0000 1.0000
61.3200 5580.0000 1.0000
61.3400 5569.0000 1.0000
61.3600 5284.0000 1.0000
61.3800 5305.0000 1.0000
61.4000 5174.0000 1.0000
61.4200 5289.0000 1.0000
61.4400 5292.0000 1.0000
61.4600 5335.0000 1.0000
61.4800 5280.0000 1.0000
61.5000 5090.0000 1.0000
61.5200 5032.0000 1.0000
61.5400 4963.0000 1.0000
61.5600 5008.0000 1.0000
61.5800 5006.0000 1.0000
61.6000 4884.0000 1.0000
61.6200 5053.0000 1.0000
61.6400 4745.0000 1.0000
61.6600 4828.0000 1.0000
61.6800 4847.0000 1.0000
61.7000 4896.0000 1.0000
61.7200 4824.0000 1.0000
61.7400 4850.0000 1.0000
61.7600 4811.0000 1.0000
61.7800 4866.0000 1.0000
61.8000 4769.0000 1.0000
61.8200 4784.0000 1.0000
61.8400 4899.0000 1.0000
61.8600 4966.0000 1.0000
61.8800 4897.0000 1.0000
61.9000 4881.0000 1.0000
61.9200 4847.0000 1.0000
61.9400 4802.0000 1.0000
61.9600 4868.0000 1.0000
61.9800 4819.0000 1.0000
62.0000 4862.0000 1.0000
62.0200 4923.0000 1.0000
62.0400 4894.0000 1.0000
62.0600 4956.0000 1.0000
62.0800 4928.0000 1.0000
62.1000 4903.0000 1.0000
62.1200 5001.0000 1.0000
62.1400 4952.0000 1.0000
62.1600 4865.0000 1.0000
62.1800 4927.0000 1.0000
62.2000 5015.0000 1.0000
62.2200 5133.0000 1.0000
62.2400 5046.0000 1.0000
62.2600 5267.0000 1.0000
62.2800 5320.0000 1.0000
62.3000 5355.0000 1.0000
62.3200 5603.0000 1.0000
62.3400 5865.0000 1.0000
62.3600 6141.0000 1.0000
62.3800 6331.0000 1.0000
62.4000 6780.0000 1.0000
62.4200 6899.0000 1.0000
62.4400 6738.0000 1.0000
62.4600 6586.0000 1.0000
62.4800 6344.0000 1.0000
62.5000 6579.0000 1.0000
62.5200 6890.0000 1.0000
62.5400 7267.0000 1.0000
62.5600 7675.0000 1.0000
62.5800 8266.0000 1.0000
62.6000 8340.0000 1.0000
62.6200 7999.0000 1.0000
62.6400 7712.0000 1.0000
62.6600 7427.0000 1.0000
62.6800 7139.0000 1.0000
62.7000 6824.0000 1.0000
62.7200 6818.0000 1.0000
62.7400 6672.0000 1.0000
62.7600 6784.0000 1.0000
62.7800 6609.0000 1.0000
62.8000 6486.0000 1.0000
62.8200 6332.0000 1.0000
62.8400 6095.0000 1.0000
62.8600 5746.0000 1.0000
62.8800 5577.0000 1.0000
62.9000 5553.0000 1.0000
62.9200 5301.0000 1.0000
62.9400 5244.0000 1.0000
62.9600 5286.0000 1.0000
62.9800 5152.0000 1.0000
63.0000 5000.0000 1.0000
63.0200 5011.0000 1.0000
63.0400 5006.0000 1.0000
63.0600 5022.0000 1.0000
63.0800 4944.0000 1.0000
63.1000 4935.0000 1.0000
63.1200 4924.0000 1.0000
63.1400 5048.0000 1.0000
63.1600 4949.0000 1.0000
63.1800 5020.0000 1.0000
63.2000 4935.0000 1.0000
63.2200 4932.0000 1.0000
63.2400 4868.0000 1.0000
63.2600 4817.0000 1.0000
63.2800 4850.0000 1.0000
63.3000 5038.0000 1.0000
63.3200 4928.0000 1.0000
63.3400 4814.0000 1.0000
63.3600 4792.0000 1.0000
63.3800 4863.0000 1.0000
63.4000 4887.0000 1.0000
63.4200 4927.0000 1.0000
63.4400 4855.0000 1.0000
63.4600 4913.0000 1.0000
63.4800 4856.0000 1.0000
63.5000 4797.0000 1.0000
63.5200 4879.0000 1.0000
63.5400 4904.0000 1.0000
63.5600 4790.0000 1.0000
63.5800 4832.0000 1.0000
63.6000 4910.0000 1.0000
63.6200 4934.0000 1.0000
63.6400 4894.0000 1.0000
63.6600 4980.0000 1.0000
63.6800 4891.0000 1.0000
63.7000 4978.0000 1.0000
63.7200 4981.0000 1.0000
63.7400 4961.0000 1.0000
63.7600 5038.0000 1.0000
63.7800 5122.0000 1.0000
63.8000 5148.0000 1.0000
63.8200 5147.0000 1.0000
63.8400 5269.0000 1.0000
63.8600 5364.0000 1.0000
63.8800 5536.0000 1.0000
63.9000 5873.0000 1.0000
63.9200 6115.0000 1.0000
63.9400 6623.0000 1.0000
63.9600 7300.0000 1.0000
63.9800 7790.0000 1.0000
64.0000 8421.0000 1.0000
64.0200 8752.0000 1.0000
64.0400 7780.0000 1.0000
64.0600 6832.0000 1.0000
64.0800 6292.0000 1.0000
64.1000 5954.0000 1.0000
64.1200 6165.0000 1.0000
64.1400 6248.0000 1.0000
64.1600 6472.0000 1.0000
64.1800 6713.0000 1.0000
64.2000 6682.0000 1.0000
64.2200 6396.0000 1.0000
64.2400 5732.0000 1.0000
64.2600 5318.0000 1.0000
64.2800 5197.0000 1.0000
64.3000 5115.0000 1.0000
64.3200 4975.0000 1.0000
64.3400 5040.0000 1.0000
64.3600 4997.0000 1.0000
64.3800 4853.0000 1.0000
64.4000 4867.0000 1.0000
64.4200 4918.0000 1.0000
64.4400 4881.0000 1.0000
64.4600 4979.0000 1.0000
64.4800 4944.0000 1.0000
64.5000 4906.0000 1.0000
64.5200 4794.0000 1.0000
64.5400 4794.0000 1.0000
64.5600 4753.0000 1.0000
64.5800 4786.0000 1.0000
64.6000 4840.0000 1.0000
64.6200 4743.0000 1.0000
64.6400 4813.0000 1.0000
64.6600 4887.0000 1.0000
64.6800 4690.0000 1.0000
64.7000 4833.0000 1.0000
64.7200 4815.0000 1.0000
64.7400 4842.0000 1.0000
64.7600 4683.0000 1.0000
64.7800 4844.0000 1.0000
64.8000 4832.0000 1.0000
64.8200 4869.0000 1.0000
64.8400 4767.0000 1.0000
64.8600 4788.0000 1.0000
64.8800 4844.0000 1.0000
64.9000 4869.0000 1.0000
64.9200 4781.0000 1.0000
64.9400 4704.0000 1.0000
64.9600 4910.0000 1.0000
64.9800 4790.0000 1.0000
65.0000 4825.0000 1.0000
65.0200 4851.0000 1.0000
65.0400 4837.0000 1.0000
65.0600 4909.0000 1.0000
65.0800 4801.0000 1.0000
65.1000 4862.0000 1.0000
65.1200 4758.0000 1.0000
65.1400 4905.0000 1.0000
65.1600 4841.0000 1.0000
65.1800 4814.0000 1.0000
65.2000 4860.0000 1.0000
65.2200 4861.0000 1.0000
65.2400 4737.0000 1.0000
65.2600 4761.0000 1.0000
65.2800 4971.0000 1.0000
65.3000 4811.0000 1.0000
65.3200 4857.0000 1.0000
65.3400 4824.0000 1.0000
65.3600 4909.0000 1.0000
65.3800 4939.0000 1.0000
65.4000 4858.0000 1.0000
65.4200 4897.0000 1.0000
65.4400 4862.0000 1.0000
65.4600 4943.0000 1.0000
65.4800 4791.0000 1.0000
65.5000 4839.0000 1.0000
65.5200 4927.0000 1.0000
65.5400 4873.0000 1.0000
65.5600 4856.0000 1.0000
65.5800 4949.0000 1.0000
65.6000 4849.0000 1.0000
65.6200 4909.0000 1.0000
65.6400 4881.0000 1.0000
65.6600 4844.0000 1.0000
65.6800 4963.0000 1.0000
65.7000 5021.0000 1.0000
65.7200 5051.0000 1.0000
65.7400 5386.0000 1.0000
65.7600 5350.0000 1.0000
65.7800 5307.0000 1.0000
65.8000 5051.0000 1.0000
65.8200 5105.0000 1.0000
65.8400 5087.0000 1.0000
65.8600 5040.0000 1.0000
65.8800 4979.0000 1.0000
65.9000 5024.0000 1.0000
65.9200 5060.0000 1.0000
65.9400 5164.0000 1.0000
65.9600 5141.0000 1.0000
65.9800 5142.0000 1.0000
66.0000 5168.0000 1.0000
66.0200 5081.0000 1.0000
66.0400 5077.0000 1.0000
66.0600 5050.0000 1.0000
66.0800 5165.0000 1.0000
66.1000 5043.0000 1.0000
66.1200 5075.0000 1.0000
66.1400 5036.0000 1.0000
66.1600 5195.0000 1.0000
66.1800 5139.0000 1.0000
66.2000 5262.0000 1.0000
66.2200 5284.0000 1.0000
66.2400 5299.0000 1.0000
66.2600 5251.0000 1.0000
66.2800 5406.0000 1.0000
66.3000 5460.0000 1.0000
66.3200 5710.0000 1.0000
66.3400 5732.0000 1.0000
66.3600 5840.0000 1.0000
66.3800 6041.0000 1.0000
66.4000 6535.0000 1.0000
66.4200 6880.0000 1.0000
66.4400 7587.0000 1.0000
66.4600 8132.0000 1.0000
66.4800 8751.0000 1.0000
66.5000 8824.0000 1.0000
66.5200 8291.0000 1.0000
66.5400 7457.0000 1.0000
66.5600 6846.0000 1.0000
66.5800 6562.0000 1.0000
66.6000 6590.0000 1.0000
66.6200 6719.0000 1.0000
66.6400 7002.0000 1.0000
66.6600 6949.0000 1.0000
66.6800 7009.0000 1.0000
66.7000 6880.0000 1.0000
66.7200 6493.0000 1.0000
66.7400 6021.0000 1.0000
66.7600 5754.0000 1.0000
66.7800 5635.0000 1.0000
66.8000 5473.0000 1.0000
66.8200 5304.0000 1.0000
66.8400 5259.0000 1.0000
66.8600 5268.0000 1.0000
66.8800 5149.0000 1.0000
66.9000 5022.0000 1.0000
66.9200 5021.0000 1.0000
66.9400 5098.0000 1.0000
66.9600 5045.0000 1.0000
66.9800 5096.0000 1.0000
67.0000 5046.0000 1.0000
67.0200 4893.0000 1.0000
67.0400 4983.0000 1.0000
67.0600 4831.0000 1.0000
67.0800 5002.0000 1.0000
67.1000 5011.0000 1.0000
67.1200 5109.0000 1.0000
67.1400 4852.0000 1.0000
67.1600 4970.0000 1.0000
67.1800 5080.0000 1.0000
67.2000 4929.0000 1.0000
67.2200 5082.0000 1.0000
67.2400 4944.0000 1.0000
67.2600 5040.0000 1.0000
67.2800 5110.0000 1.0000
67.3000 5092.0000 1.0000
67.3200 5017.0000 1.0000
67.3400 4985.0000 1.0000
67.3600 5080.0000 1.0000
67.3800 5011.0000 1.0000
67.4000 5131.0000 1.0000
67.4200 5094.0000 1.0000
67.4400 4974.0000 1.0000
67.4600 5052.0000 1.0000
67.4800 5051.0000 1.0000
67.5000 5310.0000 1.0000
67.5200 5374.0000 1.0000
67.5400 5374.0000 1.0000
67.5600 5535.0000 1.0000
67.5800 5465.0000 1.0000
67.6000 5664.0000 1.0000
67.6200 6112.0000 1.0000
67.6400 6752.0000 1.0000
67.6600 7499.0000 1.0000
67.6800 8913.0000 1.0000
67.7000 11180.0000 1.0000
67.7200 11785.0000 1.0000
67.7400 10164.0000 1.0000
67.7600 8137.0000 1.0000
67.7800 6950.0000 1.0000
67.8000 6517.0000 1.0000
67.8200 6441.0000 1.0000
67.8400 6897.0000 1.0000
67.8600 7353.0000 1.0000
67.8800 8227.0000 1.0000
67.9000 9121.0000 1.0000
67.9200 9085.0000 1.0000
67.9400 8207.0000 1.0000
67.9600 7473.0000 1.0000
67.9800 7266.0000 1.0000
68.0000 7274.0000 1.0000
68.0200 7717.0000 1.0000
68.0400 8502.0000 1.0000
68.0600 9759.0000 1.0000
68.0800 11946.0000 1.0000
68.1000 15504.0000 1.0000
68.1200 17238.0000 1.0000
68.1400 16510.0000 1.0000
68.1600 14879.0000 1.0000
68.1800 13899.0000 1.0000
68.2000 12972.0000 1.0000
68.2200 12822.0000 1.0000
68.2400 12940.0000 1.0000
68.2600 14351.0000 1.0000
68.2800 17427.0000 1.0000
68.3000 18474.0000 1.0000
68.3200 15769.0000 1.0000
68.3400 13130.0000 1.0000
68.3600 11296.0000 1.0000
68.3800 9997.0000 1.0000
68.4000 9314.0000 1.0000
68.4200 8827.0000 1.0000
68.4400 8809.0000 1.0000
68.4600 9167.0000 1.0000
68.4800 9702.0000 1.0000
68.5000 8738.0000 1.0000
68.5200 7565.0000 1.0000
68.5400 6414.0000 1.0000
68.5600 5953.0000 1.0000
68.5800 5652.0000 1.0000
68.6000 5580.0000 1.0000
68.6200 5631.0000 1.0000
68.6400 5488.0000 1.0000
68.6600 5266.0000 1.0000
68.6800 5197.0000 1.0000
68.7000 5275.0000 1.0000
68.7200 5159.0000 1.0000
68.7400 5120.0000 1.0000
68.7600 5187.0000 1.0000
68.7800 5058.0000 1.0000
68.8000 4890.0000 1.0000
68.8200 4906.0000 1.0000
68.8400 4970.0000 1.0000
68.8600 5007.0000 1.0000
68.8800 5034.0000 1.0000
68.9000 4979.0000 1.0000
68.9200 4907.0000 1.0000
68.9400 4935.0000 1.0000
68.9600 4907.0000 1.0000
68.9800 4991.0000 1.0000
69.0000 4889.0000 1.0000
69.0200 4975.0000 1.0000
69.0400 4970.0000 1.0000
69.0600 4871.0000 1.0000
69.0800 4919.0000 1.0000
69.1000 4991.0000 1.0000
69.1200 4951.0000 1.0000
69.1400 4878.0000 1.0000
69.1600 4878.0000 1.0000
69.1800 4852.0000 1.0000
69.2000 4847.0000 1.0000
69.2200 4905.0000 1.0000
69.2400 4918.0000 1.0000
69.2600 4941.0000 1.0000
69.2800 4777.0000 1.0000
69.3000 4913.0000 1.0000
69.3200 4928.0000 1.0000
69.3400 4850.0000 1.0000
69.3600 4761.0000 1.0000
69.3800 4757.0000 1.0000
69.4000 4924.0000 1.0000
69.4200 4862.0000 1.0000
69.4400 5018.0000 1.0000
69.4600 4870.0000 1.0000
69.4800 5012.0000 1.0000
69.5000 4942.0000 1.0000
69.5200 4886.0000 1.0000
69.5400 5009.0000 1.0000
69.5600 4923.0000 1.0000
69.5800 5054.0000 1.0000
69.6000 5005.0000 1.0000
69.6200 5076.0000 1.0000
69.6400 5031.0000 1.0000
69.6600 4919.0000 1.0000
69.6800 4860.0000 1.0000
69.7000 5000.0000 1.0000
69.7200 4931.0000 1.0000
69.7400 4923.0000 1.0000
69.7600 4902.0000 1.0000
69.7800 4921.0000 1.0000
69.8000 4887.0000 1.0000
69.8200 4810.0000 1.0000
69.8400 4763.0000 1.0000
69.8600 4823.0000 1.0000
69.8800 4810.0000 1.0000
69.9000 4790.0000 1.0000
69.9200 4734.0000 1.0000
69.9400 4796.0000 1.0000
69.9600 4862.0000 1.0000
69.9800 4798.0000 1.0000
70.0000 4801.0000 1.0000
70.0200 4809.0000 1.0000
70.0400 4841.0000 1.0000
70.0600 4862.0000 1.0000
70.0800 4669.0000 1.0000
70.1000 4803.0000 1.0000
70.1200 4962.0000 1.0000
70.1400 4798.0000 1.0000
70.1600 4989.0000 1.0000
70.1800 4894.0000 1.0000
70.2000 4852.0000 1.0000
70.2200 4823.0000 1.0000
70.2400 4913.0000 1.0000
70.2600 4853.0000 1.0000
70.2800 4886.0000 1.0000
70.3000 4870.0000 1.0000
70.3200 4946.0000 1.0000
70.3400 4844.0000 1.0000
70.3600 4890.0000 1.0000
70.3800 4934.0000 1.0000
70.4000 4837.0000 1.0000
70.4200 4889.0000 1.0000
70.4400 4834.0000 1.0000
70.4600 4885.0000 1.0000
70.4800 4853.0000 1.0000
70.5000 4771.0000 1.0000
70.5200 4896.0000 1.0000
70.5400 4790.0000 1.0000
70.5600 4887.0000 1.0000
70.5800 4777.0000 1.0000
70.6000 4737.0000 1.0000
70.6200 4778.0000 1.0000
70.6400 4668.0000 1.0000
70.6600 4793.0000 1.0000
70.6800 4842.0000 1.0000
70.7000 4903.0000 1.0000
70.7200 4977.0000 1.0000
70.7400 4808.0000 1.0000
70.7600 4682.0000 1.0000
70.7800 4742.0000 1.0000
70.8000 4741.0000 1.0000
70.8200 4840.0000 1.0000
70.8400 4826.0000 1.0000
70.8600 4899.0000 1.0000
70.8800 4734.0000 1.0000
70.9000 4757.0000 1.0000
70.9200 4855.0000 1.0000
70.9400 4925.0000 1.0000
70.9600 4953.0000 1.0000
70.9800 4893.0000 1.0000
71.0000 5014.0000 1.0000
71.0200 4978.0000 1.0000
71.0400 4974.0000 1.0000
71.0600 4844.0000 1.0000
71.0800 4878.0000 1.0000
71.1000 5029.0000 1.0000
71.1200 4885.0000 1.0000
71.1400 4918.0000 1.0000
71.1600 4951.0000 1.0000
71.1800 4925.0000 1.0000
71.2000 4922.0000 1.0000
71.2200 4776.0000 1.0000
71.2400 4931.0000 1.0000
71.2600 4913.0000 1.0000
71.2800 4859.0000 1.0000
71.3000 4808.0000 1.0000
71.3200 4698.0000 1.0000
71.3400 4863.0000 1.0000
71.3600 4757.0000 1.0000
71.3800 4798.0000 1.0000
71.4000 4812.0000 1.0000
71.4200 4807.0000 1.0000
71.4400 4774.0000 1.0000
71.4600 4831.0000 1.0000
71.4800 4838.0000 1.0000
71.5000 4744.0000 1.0000
71.5200 4858.0000 1.0000
71.5400 4764.0000 1.0000
71.5600 4674.0000 1.0000
71.5800 4919.0000 1.0000
71.6000 4866.0000 1.0000
71.6200 4717.0000 1.0000
71.6400 4814.0000 1.0000
71.6600 4800.0000 1.0000
71.6800 4895.0000 1.0000
71.7000 4832.0000 1.0000
71.7200 4861.0000 1.0000
71.7400 4871.0000 1.0000
71.7600 4941.0000 1.0000
71.7800 4977.0000 1.0000
71.8000 4893.0000 1.0000
71.8200 5010.0000 1.0000
71.8400 5058.0000 1.0000
71.8600 5263.0000 1.0000
71.8800 5142.0000 1.0000
71.9000 5222.0000 1.0000
71.9200 5340.0000 1.0000
71.9400 5298.0000 1.0000
71.9600 5113.0000 1.0000
71.9800 5148.0000 1.0000
72.0000 5099.0000 1.0000
72.0200 4943.0000 1.0000
72.0400 4954.0000 1.0000
72.0600 5168.0000 1.0000
72.0800 4997.0000 1.0000
72.1000 5042.0000 1.0000
72.1200 5071.0000 1.0000
72.1400 5078.0000 1.0000
72.1600 5035.0000 1.0000
72.1800 5040.0000 1.0000
72.2000 4963.0000 1.0000
72.2200 4984.0000 1.0000
72.2400 5096.0000 1.0000
72.2600 4897.0000 1.0000
72.2800 4949.0000 1.0000
72.3000 4867.0000 1.0000
72.3200 4766.0000 1.0000
72.3400 4885.0000 1.0000
72.3600 4814.0000 1.0000
72.3800 4792.0000 1.0000
72.4000 4778.0000 1.0000
72.4200 4714.0000 1.0000
72.4400 4856.0000 1.0000
72.4600 4950.0000 1.0000
72.4800 4727.0000 1.0000
72.5000 4858.0000 1.0000
72.5200 4803.0000 1.0000
72.5400 4705.0000 1.0000
72.5600 4782.0000 1.0000
72.5800 4787.0000 1.0000
72.6000 4948.0000 1.0000
72.6200 4828.0000 1.0000
72.6400 4742.0000 1.0000
72.6600 4817.0000 1.0000
72.6800 4699.0000 1.0000
72.7000 4698.0000 1.0000
72.7200 4779.0000 1.0000
72.7400 4835.0000 1.0000
72.7600 4638.0000 1.0000
72.7800 4707.0000 1.0000
72.8000 4816.0000 1.0000
72.8200 4751.0000 1.0000
72.8400 4773.0000 1.0000
72.8600 4799.0000 1.0000
72.8800 4824.0000 1.0000
72.9000 4793.0000 1.0000
72.9200 4754.0000 1.0000
72.9400 4691.0000 1.0000
72.9600 4778.0000 1.0000
72.9800 4795.0000 1.0000
73.0000 4778.0000 1.0000
73.0200 4704.0000 1.0000
73.0400 4756.0000 1.0000
73.0600 4769.0000 1.0000
73.0800 4771.0000 1.0000
73.1000 4909.0000 1.0000
73.1200 4734.0000 1.0000
73.1400 4688.0000 1.0000
73.1600 4769.0000 1.0000
73.1800 4824.0000 1.0000
73.2000 4819.0000 1.0000
73.2200 4815.0000 1.0000
73.2400 4810.0000 1.0000
73.2600 4950.0000 1.0000
73.2800 4780.0000 1.0000
73.3000 4795.0000 1.0000
73.3200 5015.0000 1.0000
73.3400 4902.0000 1.0000
73.3600 5155.0000 1.0000
73.3800 5277.0000 1.0000
73.4000 5691.0000 1.0000
73.4200 6019.0000 1.0000
73.4400 6394.0000 1.0000
73.4600 6318.0000 1.0000
73.4800 5822.0000 1.0000
73.5000 5525.0000 1.0000
73.5200 5177.0000 1.0000
73.5400 5107.0000 1.0000
73.5600 5113.0000 1.0000
73.5800 5069.0000 1.0000
73.6000 5179.0000 1.0000
73.6200 5334.0000 1.0000
73.6400 5580.0000 1.0000
73.6600 5456.0000 1.0000
73.6800 5433.0000 1.0000
73.7000 5237.0000 1.0000
73.7200 5111.0000 1.0000
73.7400 4924.0000 1.0000
73.7600 4890.0000 1.0000
73.7800 4898.0000 1.0000
73.8000 4896.0000 1.0000
73.8200 4927.0000 1.0000
73.8400 4892.0000 1.0000
73.8600 4899.0000 1.0000
73.8800 4812.0000 1.0000
73.9000 4954.0000 1.0000
73.9200 5004.0000 1.0000
73.9400 4958.0000 1.0000
73.9600 4856.0000 1.0000
73.9800 5070.0000 1.0000
74.0000 4926.0000 1.0000
74.0200 5204.0000 1.0000
74.0400 5105.0000 1.0000
74.0600 5169.0000 1.0000
74.0800 5147.0000 1.0000
74.1000 5325.0000 1.0000
74.1200 5150.0000 1.0000
74.1400 5268.0000 1.0000
74.1600 5121.0000 1.0000
74.1800 5166.0000 1.0000
74.2000 5153.0000 1.0000
74.2200 5107.0000 1.0000
74.2400 5149.0000 1.0000
74.2600 5310.0000 1.0000
74.2800 5180.0000 1.0000
74.3000 5000.0000 1.0000
74.3200 5161.0000 1.0000
74.3400 5148.0000 1.0000
74.3600 4868.0000 1.0000
74.3800 5069.0000 1.0000
74.4000 5091.0000 1.0000
74.4200 4911.0000 1.0000
74.4400 5029.0000 1.0000
74.4600 4927.0000 1.0000
74.4800 4757.0000 1.0000
74.5000 4990.0000 1.0000
74.5200 4855.0000 1.0000
74.5400 4839.0000 1.0000
74.5600 4830.0000 1.0000
74.5800 4904.0000 1.0000
74.6000 4748.0000 1.0000
74.6200 4769.0000 1.0000
74.6400 4826.0000 1.0000
74.6600 4897.0000 1.0000
74.6800 4812.0000 1.0000
74.7000 4756.0000 1.0000
74.7200 4865.0000 1.0000
74.7400 4848.0000 1.0000
74.7600 4829.0000 1.0000
74.7800 4725.0000 1.0000
74.8000 4890.0000 1.0000
74.8200 4770.0000 1.0000
74.8400 4780.0000 1.0000
74.8600 4751.0000 1.0000
74.8800 4779.0000 1.0000
74.9000 4746.0000 1.0000
74.9200 4843.0000 1.0000
74.9400 4774.0000 1.0000
74.9600 4800.0000 1.0000
74.9800 4946.0000 1.0000
75.0000 4921.0000 1.0000
75.0200 4935.0000 1.0000
75.0400 4979.0000 1.0000
75.0600 4960.0000 1.0000
75.0800 4887.0000 1.0000
75.1000 4963.0000 1.0000
75.1200 4841.0000 1.0000
75.1400 4897.0000 1.0000
75.1600 4908.0000 1.0000
75.1800 4881.0000 1.0000
75.2000 4842.0000 1.0000
75.2200 4961.0000 1.0000
75.2400 4877.0000 1.0000
75.2600 5085.0000 1.0000
75.2800 5023.0000 1.0000
75.3000 5020.0000 1.0000
75.3200 5085.0000 1.0000
75.3400 5078.0000 1.0000
75.3600 5035.0000 1.0000
75.3800 5294.0000 1.0000
75.4000 5389.0000 1.0000
75.4200 5435.0000 1.0000
75.4400 5327.0000 1.0000
75.4600 5344.0000 1.0000
75.4800 5212.0000 1.0000
75.5000 5245.0000 1.0000
75.5200 5342.0000 1.0000
75.5400 5335.0000 1.0000
75.5600 5795.0000 1.0000
75.5800 6262.0000 1.0000
75.6000 7157.0000 1.0000
75.6200 7856.0000 1.0000
75.6400 7760.0000 1.0000
75.6600 7092.0000 1.0000
75.6800 6110.0000 1.0000
75.7000 5558.0000 1.0000
75.7200 5308.0000 1.0000
75.7400 5267.0000 1.0000
75.7600 5289.0000 1.0000
75.7800 5529.0000 1.0000
75.8000 5666.0000 1.0000
75.8200 5835.0000 1.0000
75.8400 6235.0000 1.0000
75.8600 6296.0000 1.0000
75.8800 5848.0000 1.0000
75.9000 5408.0000 1.0000
75.9200 5272.0000 1.0000
75.9400 5094.0000 1.0000
75.9600 4953.0000 1.0000
75.9800 4958.0000 1.0000
76.0000 4966.0000 1.0000
76.0200 4839.0000 1.0000
76.0400 4873.0000 1.0000
76.0600 4946.0000 1.0000
76.0800 4811.0000 1.0000
76.1000 4803.0000 1.0000
76.1200 4992.0000 1.0000
76.1400 4878.0000 1.0000
76.1600 4799.0000 1.0000
76.1800 4749.0000 1.0000
76.2000 4842.0000 1.0000
76.2200 4783.0000 1.0000
76.2400 4764.0000 1.0000
76.2600 4714.0000 1.0000
76.2800 4899.0000 1.0000
76.3000 4741.0000 1.0000
76.3200 4823.0000 1.0000
76.3400 4872.0000 1.0000
76.3600 4767.0000 1.0000
76.3800 4806.0000 1.0000
76.4000 4774.0000 1.0000
76.4200 4789.0000 1.0000
76.4400 4903.0000 1.0000
76.4600 4916.0000 1.0000
76.4800 4845.0000 1.0000
76.5000 4855.0000 1.0000
76.5200 4907.0000 1.0000
76.5400 4882.0000 1.0000
76.5600 5017.0000 1.0000
76.5800 4914.0000 1.0000
76.6000 4961.0000 1.0000
76.6200 5037.0000 1.0000
76.6400 5025.0000 1.0000
76.6600 5096.0000 1.0000
76.6800 5255.0000 1.0000
76.7000 5218.0000 1.0000
76.7200 5310.0000 1.0000
76.7400 5562.0000 1.0000
76.7600 5507.0000 1.0000
76.7800 5749.0000 1.0000
76.8000 6021.0000 1.0000
76.8200 6287.0000 1.0000
76.8400 6530.0000 1.0000
76.8600 6391.0000 1.0000
76.8800 6221.0000 1.0000
76.9000 5870.0000 1.0000
76.9200 5719.0000 1.0000
76.9400 5550.0000 1.0000
76.9600 5669.0000 1.0000
76.9800 5584.0000 1.0000
77.0000 5627.0000 1.0000
77.0200 5586.0000 1.0000
77.0400 5703.0000 1.0000
77.0600 5946.0000 1.0000
77.0800 5849.0000 1.0000
77.1000 5782.0000 1.0000
77.1200 5702.0000 1.0000
77.1400 5685.0000 1.0000
77.1600 5797.0000 1.0000
77.1800 5819.0000 1.0000
77.2000 5894.0000 1.0000
77.2200 5777.0000 1.0000
77.2400 5726.0000 1.0000
77.2600 5443.0000 1.0000
77.2800 5296.0000 1.0000
77.3000 5222.0000 1.0000
77.3200 5220.0000 1.0000
77.3400 5228.0000 1.0000
77.3600 5266.0000 1.0000
77.3800 5276.0000 1.0000
77.4000 5229.0000 1.0000
77.4200 5298.0000 1.0000
77.4400 5278.0000 1.0000
77.4600 5373.0000 1.0000
77.4800 5259.0000 1.0000
77.5000 5332.0000 1.0000
77.5200 5339.0000 1.0000
77.5400 5296.0000 1.0000
77.5600 5211.0000 1.0000
77.5800 5519.0000 1.0000
77.6000 5860.0000 1.0000
77.6200 6686.0000 1.0000
77.6400 7243.0000 1.0000
77.6600 6619.0000 1.0000
77.6800 5909.0000 1.0000
77.7000 5473.0000 1.0000
77.7200 5375.0000 1.0000
77.7400 5254.0000 1.0000
77.7600 5210.0000 1.0000
77.7800 5152.0000 1.0000
77.8000 5192.0000 1.0000
77.8200 5380.0000 1.0000
77.8400 5445.0000 1.0000
77.8600 5834.0000 1.0000
77.8800 5792.0000 1.0000
77.9000 5511.0000 1.0000
77.9200 5192.0000 1.0000
77.9400 5064.0000 1.0000
77.9600 4925.0000 1.0000
77.9800 4897.0000 1.0000
78.0000 4961.0000 1.0000
78.0200 4900.0000 1.0000
78.0400 4756.0000 1.0000
78.0600 4807.0000 1.0000
78.0800 4857.0000 1.0000
78.1000 4817.0000 1.0000
78.1200 4800.0000 1.0000
78.1400 4805.0000 1.0000
78.1600 4737.0000 1.0000
78.1800 4735.0000 1.0000
78.2000 4764.0000 1.0000
78.2200 4807.0000 1.0000
78.2400 4715.0000 1.0000
78.2600 4717.0000 1.0000
78.2800 4702.0000 1.0000
78.3000 4772.0000 1.0000
78.3200 4652.0000 1.0000
78.3400 4804.0000 1.0000
78.3600 4836.0000 1.0000
78.3800 4782.0000 1.0000
78.4000 4767.0000 1.0000
78.4200 4641.0000 1.0000
78.4400 4701.0000 1.0000
78.4600 4758.0000 1.0000
78.4800 4799.0000 1.0000
78.5000 4730.0000 1.0000
78.5200 4787.0000 1.0000
78.5400 4808.0000 1.0000
78.5600 4825.0000 1.0000
78.5800 4819.0000 1.0000
78.6000 4723.0000 1.0000
78.6200 4826.0000 1.0000
78.6400 4699.0000 1.0000
78.6600 4806.0000 1.0000
78.6800 4782.0000 1.0000
78.7000 4795.0000 1.0000
78.7200 4684.0000 1.0000
78.7400 4776.0000 1.0000
78.7600 4786.0000 1.0000
78.7800 4869.0000 1.0000
78.8000 4946.0000 1.0000
78.8200 4924.0000 1.0000
78.8400 4807.0000 1.0000
78.8600 4792.0000 1.0000
78.8800 4764.0000 1.0000
78.9000 4882.0000 1.0000
78.9200 4866.0000 1.0000
78.9400 4837.0000 1.0000
78.9600 4884.0000 1.0000
78.9800 4805.0000 1.0000
79.0000 5059.0000 1.0000
79.0200 4950.0000 1.0000
79.0400 4848.0000 1.0000
79.0600 4885.0000 1.0000
79.0800 4869.0000 1.0000
79.1000 4848.0000 1.0000
79.1200 4785.0000 1.0000
79.1400 4917.0000 1.0000
79.1600 4954.0000 1.0000
79.1800 4783.0000 1.0000
79.2000 4767.0000 1.0000
79.2200 4847.0000 1.0000
79.2400 4779.0000 1.0000
79.2600 4800.0000 1.0000
79.2800 4903.0000 1.0000
79.3000 4821.0000 1.0000
79.3200 4942.0000 1.0000
79.3400 4856.0000 1.0000
79.3600 4874.0000 1.0000
79.3800 4872.0000 1.0000
79.4000 4681.0000 1.0000
79.4200 4951.0000 1.0000
79.4400 4832.0000 1.0000
79.4600 4776.0000 1.0000
79.4800 4756.0000 1.0000
79.5000 4812.0000 1.0000
79.5200 4891.0000 1.0000
79.5400 4834.0000 1.0000
79.5600 4923.0000 1.0000
79.5800 4803.0000 1.0000
79.6000 4869.0000 1.0000
79.6200 4865.0000 1.0000
79.6400 5014.0000 1.0000
79.6600 4944.0000 1.0000
79.6800 4841.0000 1.0000
79.7000 4873.0000 1.0000
79.7200 4904.0000 1.0000
79.7400 5107.0000 1.0000
79.7600 5157.0000 1.0000
79.7800 5546.0000 1.0000
79.8000 5848.0000 1.0000
79.8200 6556.0000 1.0000
79.8400 7478.0000 1.0000
79.8600 7765.0000 1.0000
79.8800 7154.0000 1.0000
79.9000 6109.0000 1.0000
79.9200 5810.0000 1.0000
79.9400 5451.0000 1.0000
79.9600 5511.0000 1.0000
79.9800 5642.0000 1.0000
80.0000 5950.0000 1.0000
80.0200 6073.0000 1.0000
80.0400 6072.0000 1.0000
80.0600 6130.0000 1.0000
80.0800 6391.0000 1.0000
80.1000 6319.0000 1.0000
80.1200 6007.0000 1.0000
80.1400 5573.0000 1.0000
80.1600 5270.0000 1.0000
80.1800 5137.0000 1.0000
80.2000 5172.0000 1.0000
80.2200 5219.0000 1.0000
80.2400 5303.0000 1.0000
80.2600 5337.0000 1.0000
80.2800 5333.0000 1.0000
80.3000 5110.0000 1.0000
80.3200 4937.0000 1.0000
80.3400 4907.0000 1.0000
80.3600 4881.0000 1.0000
80.3800 4959.0000 1.0000
80.4000 5030.0000 1.0000
80.4200 5076.0000 1.0000
80.4400 4943.0000 1.0000
80.4600 4896.0000 1.0000
80.4800 5058.0000 1.0000
80.5000 5047.0000 1.0000
80.5200 4970.0000 1.0000
80.5400 5010.0000 1.0000
80.5600 5162.0000 1.0000
80.5800 5211.0000 1.0000
80.6000 5365.0000 1.0000
80.6200 5458.0000 1.0000
80.6400 5544.0000 1.0000
80.6600 5614.0000 1.0000
80.6800 5640.0000 1.0000
80.7000 5432.0000 1.0000
80.7200 5349.0000 1.0000
80.7400 5340.0000 1.0000
80.7600 5392.0000 1.0000
80.7800 5274.0000 1.0000
80.8000 5054.0000 1.0000
80.8200 5162.0000 1.0000
80.8400 5134.0000 1.0000
80.8600 5048.0000 1.0000
80.8800 5341.0000 1.0000
80.9000 5212.0000 1.0000
80.9200 5289.0000 1.0000
80.9400 5222.0000 1.0000
80.9600 5034.0000 1.0000
80.9800 5176.0000 1.0000
81.0000 5154.0000 1.0000
81.0200 5158.0000 1.0000
81.0400 5163.0000 1.0000
81.0600 5223.0000 1.0000
81.0800 5407.0000 1.0000
81.1000 5638.0000 1.0000
81.1200 6462.0000 1.0000
81.1400 6686.0000 1.0000
81.1600 6695.0000 1.0000
81.1800 6072.0000 1.0000
81.2000 5654.0000 1.0000
81.2200 5408.0000 1.0000
81.2400 5230.0000 1.0000
81.2600 5247.0000 1.0000
81.2800 5295.0000 1.0000
81.3000 5378.0000 1.0000
81.3200 5438.0000 1.0000
81.3400 5630.0000 1.0000
81.3600 5917.0000 1.0000
81.3800 6404.0000 1.0000
81.4000 6777.0000 1.0000
81.4200 7186.0000 1.0000
81.4400 7838.0000 1.0000
81.4600 7816.0000 1.0000
81.4800 7390.0000 1.0000
81.5000 6400.0000 1.0000
81.5200 5940.0000 1.0000
81.5400 5364.0000 1.0000
81.5600 5173.0000 1.0000
81.5800 5229.0000 1.0000
81.6000 5225.0000 1.0000
81.6200 5138.0000 1.0000
81.6400 5401.0000 1.0000
81.6600 5634.0000 1.0000
81.6800 6007.0000 1.0000
81.7000 6391.0000 1.0000
81.7200 6076.0000 1.0000
81.7400 5618.0000 1.0000
81.7600 5422.0000 1.0000
81.7800 5051.0000 1.0000
81.8000 5030.0000 1.0000
81.8200 5007.0000 1.0000
81.8400 4851.0000 1.0000
81.8600 4739.0000 1.0000
81.8800 4947.0000 1.0000
81.9000 4803.0000 1.0000
81.9200 4809.0000 1.0000
81.9400 4877.0000 1.0000
81.9600 4944.0000 1.0000
81.9800 4797.0000 1.0000
82.0000 4798.0000 1.0000
82.0200 4843.0000 1.0000
82.0400 4807.0000 1.0000
82.0600 4681.0000 1.0000
82.0800 4712.0000 1.0000
82.1000 4750.0000 1.0000
82.1200 4777.0000 1.0000
82.1400 4688.0000 1.0000
82.1600 4881.0000 1.0000
82.1800 4807.0000 1.0000
82.2000 4736.0000 1.0000
82.2200 4781.0000 1.0000
82.2400 4718.0000 1.0000
82.2600 4802.0000 1.0000
82.2800 4895.0000 1.0000
82.3000 4833.0000 1.0000
82.3200 4723.0000 1.0000
82.3400 4683.0000 1.0000
82.3600 4747.0000 1.0000
82.3800 4732.0000 1.0000
82.4000 4817.0000 1.0000
82.4200 4672.0000 1.0000
82.4400 4687.0000 1.0000
82.4600 4731.0000 1.0000
82.4800 4710.0000 1.0000
82.5000 4782.0000 1.0000
82.5200 4765.0000 1.0000
82.5400 4745.0000 1.0000
82.5600 4847.0000 1.0000
82.5800 4890.0000 1.0000
82.6000 4762.0000 1.0000
82.6200 4711.0000 1.0000
82.6400 4674.0000 1.0000
82.6600 4809.0000 1.0000
82.6800 4756.0000 1.0000
82.7000 4789.0000 1.0000
82.7200 4808.0000 1.0000
82.7400 4706.0000 1.0000
82.7600 4779.0000 1.0000
82.7800 4754.0000 1.0000
82.8000 4887.0000 1.0000
82.8200 4884.0000 1.0000
82.8400 4785.0000 1.0000
82.8600 4794.0000 1.0000
82.8800 4927.0000 1.0000
82.9000 5012.0000 1.0000
82.9200 5171.0000 1.0000
82.9400 4897.0000 1.0000
82.9600 4943.0000 1.0000
82.9800 4820.0000 1.0000
83.0000 4992.0000 1.0000
83.0200 5019.0000 1.0000
83.0400 4927.0000 1.0000
83.0600 4777.0000 1.0000
83.0800 4872.0000 1.0000
83.1000 4822.0000 1.0000
83.1200 4895.0000 1.0000
83.1400 4871.0000 1.0000
83.1600 4882.0000 1.0000
83.1800 4938.0000 1.0000
83.2000 4959.0000 1.0000
83.2200 4929.0000 1.0000
83.2400 4903.0000 1.0000
83.2600 4939.0000 1.0000
83.2800 4771.0000 1.0000
83.3000 4875.0000 1.0000
83.3200 4903.0000 1.0000
83.3400 4828.0000 1.0000
83.3600 4768.0000 1.0000
83.3800 4746.0000 1.0000
83.4000 4840.0000 1.0000
83.4200 4804.0000 1.0000
83.4400 5001.0000 1.0000
83.4600 4800.0000 1.0000
83.4800 4728.0000 1.0000
83.5000 4826.0000 1.0000
83.5200 4836.0000 1.0000
83.5400 4838.0000 1.0000
83.5600 4825.0000 1.0000
83.5800 4937.0000 1.0000
83.6000 4889.0000 1.0000
83.6200 4803.0000 1.0000
83.6400 4858.0000 1.0000
83.6600 4882.0000 1.0000
83.6800 4930.0000 1.0000
83.7000 5087.0000 1.0000
83.7200 5125.0000 1.0000
83.7400 5325.0000 1.0000
83.7600 5739.0000 1.0000
83.7800 6231.0000 1.0000
83.8000 6611.0000 1.0000
83.8200 6470.0000 1.0000
83.8400 5850.0000 1.0000
83.8600 5526.0000 1.0000
83.8800 5235.0000 1.0000
83.9000 5115.0000 1.0000
83.9200 5039.0000 1.0000
83.9400 4825.0000 1.0000
83.9600 4876.0000 1.0000
83.9800 5071.0000 1.0000
84.0000 5102.0000 1.0000
84.0200 5307.0000 1.0000
84.0400 5512.0000 1.0000
84.0600 5623.0000 1.0000
84.0800 5594.0000 1.0000
84.1000 5528.0000 1.0000
84.1200 5237.0000 1.0000
84.1400 5013.0000 1.0000
84.1600 4965.0000 1.0000
84.1800 4972.0000 1.0000
84.2000 4891.0000 1.0000
84.2200 4917.0000 1.0000
84.2400 4925.0000 1.0000
84.2600 4983.0000 1.0000
84.2800 5120.0000 1.0000
84.3000 5162.0000 1.0000
84.3200 5144.0000 1.0000
84.3400 5200.0000 1.0000
84.3600 5146.0000 1.0000
84.3800 4985.0000 1.0000
84.4000 4920.0000 1.0000
84.4200 4968.0000 1.0000
84.4400 4776.0000 1.0000
84.4600 4967.0000 1.0000
84.4800 4822.0000 1.0000
84.5000 4953.0000 1.0000
84.5200 4905.0000 1.0000
84.5400 4973.0000 1.0000
84.5600 4910.0000 1.0000
84.5800 4978.0000 1.0000
84.6000 4932.0000 1.0000
84.6200 4912.0000 1.0000
84.6400 4828.0000 1.0000
84.6600 4955.0000 1.0000
84.6800 4915.0000 1.0000
84.7000 4868.0000 1.0000
84.7200 4982.0000 1.0000
84.7400 4834.0000 1.0000
84.7600 4814.0000 1.0000
84.7800 4873.0000 1.0000
84.8000 4984.0000 1.0000
84.8200 5103.0000 1.0000
84.8400 4977.0000 1.0000
84.8600 5144.0000 1.0000
84.8800 5342.0000 1.0000
84.9000 5457.0000 1.0000
84.9200 5388.0000 1.0000
84.9400 5295.0000 1.0000
84.9600 5165.0000 1.0000
84.9800 5132.0000 1.0000
85.0000 5093.0000 1.0000
85.0200 4929.0000 1.0000
85.0400 4867.0000 1.0000
85.0600 5017.0000 1.0000
85.0800 4993.0000 1.0000
85.1000 5028.0000 1.0000
85.1200 4899.0000 1.0000
85.1400 4958.0000 1.0000
85.1600 5129.0000 1.0000
85.1800 5102.0000 1.0000
85.2000 5064.0000 1.0000
85.2200 5013.0000 1.0000
85.2400 4870.0000 1.0000
85.2600 4990.0000 1.0000
85.2800 4757.0000 1.0000
85.3000 4859.0000 1.0000
85.3200 4816.0000 1.0000
85.3400 4853.0000 1.0000
85.3600 4828.0000 1.0000
85.3800 4930.0000 1.0000
85.4000 4752.0000 1.0000
85.4200 4698.0000 1.0000
85.4400 4711.0000 1.0000
85.4600 4714.0000 1.0000
85.4800 4720.0000 1.0000
85.5000 4759.0000 1.0000
85.5200 4742.0000 1.0000
85.5400 4610.0000 1.0000
85.5600 4639.0000 1.0000
85.5800 4567.0000 1.0000
85.6000 4816.0000 1.0000
85.6200 4648.0000 1.0000
85.6400 4702.0000 1.0000
85.6600 4652.0000 1.0000
85.6800 4761.0000 1.0000
85.7000 4713.0000 1.0000
85.7200 4690.0000 1.0000
85.7400 4718.0000 1.0000
85.7600 4806.0000 1.0000
85.7800 4778.0000 1.0000
85.8000 4659.0000 1.0000
85.8200 4709.0000 1.0000
85.8400 4729.0000 1.0000
85.8600 4780.0000 1.0000
85.8800 4726.0000 1.0000
85.9000 4752.0000 1.0000
85.9200 4721.0000 1.0000
85.9400 4830.0000 1.0000
85.9600 4722.0000 1.0000
85.9800 4693.0000 1.0000
86.0000 4746.0000 1.0000
86.0200 4744.0000 1.0000
86.0400 4710.0000 1.0000
86.0600 4798.0000 1.0000
86.0800 4831.0000 1.0000
86.1000 4864.0000 1.0000
86.1200 4743.0000 1.0000
86.1400 4817.0000 1.0000
86.1600 4837.0000 1.0000
86.1800 4921.0000 1.0000
86.2000 4811.0000 1.0000
86.2200 4956.0000 1.0000
86.2400 5079.0000 1.0000
86.2600 4897.0000 1.0000
86.2800 5053.0000 1.0000
86.3000 5103.0000 1.0000
86.3200 5204.0000 1.0000
86.3400 5192.0000 1.0000
86.3600 5194.0000 1.0000
86.3800 5060.0000 1.0000
86.4000 4962.0000 1.0000
86.4200 5130.0000 1.0000
86.4400 4980.0000 1.0000
86.4600 5225.0000 1.0000
86.4800 5040.0000 1.0000
86.5000 5105.0000 1.0000
86.5200 5051.0000 1.0000
86.5400 5034.0000 1.0000
86.5600 4943.0000 1.0000
86.5800 5051.0000 1.0000
86.6000 4905.0000 1.0000
86.6200 5011.0000 1.0000
86.6400 4956.0000 1.0000
86.6600 5025.0000 1.0000
86.6800 4869.0000 1.0000
86.7000 4950.0000 1.0000
86.7200 5024.0000 1.0000
86.7400 5036.0000 1.0000
86.7600 5084.0000 1.0000
86.7800 4966.0000 1.0000
86.8000 5018.0000 1.0000
86.8200 4995.0000 1.0000
86.8400 4951.0000 1.0000
86.8600 4855.0000 1.0000
86.8800 4944.0000 1.0000
86.9000 5007.0000 1.0000
86.9200 5003.0000 1.0000
86.9400 4840.0000 1.0000
86.9600 4989.0000 1.0000
86.9800 5001.0000 1.0000
87.0000 4842.0000 1.0000
87.0200 4896.0000 1.0000
87.0400 4793.0000 1.0000
87.0600 4808.0000 1.0000
87.0800 4883.0000 1.0000
87.1000 4915.0000 1.0000
87.1200 4808.0000 1.0000
87.1400 4833.0000 1.0000
87.1600 4830.0000 1.0000
87.1800 4794.0000 1.0000
87.2000 4818.0000 1.0000
87.2200 4928.0000 1.0000
87.2400 4716.0000 1.0000
87.2600 4865.0000 1.0000
87.2800 4779.0000 1.0000
87.3000 5018.0000 1.0000
87.3200 4868.0000 1.0000
87.3400 4788.0000 1.0000
87.3600 4885.0000 1.0000
87.3800 5093.0000 1.0000
87.4000 5104.0000 1.0000
87.4200 5235.0000 1.0000
87.4400 5188.0000 1.0000
87.4600 5068.0000 1.0000
87.4800 4868.0000 1.0000
87.5000 4870.0000 1.0000
87.5200 4717.0000 1.0000
87.5400 4853.0000 1.0000
87.5600 4698.0000 1.0000
87.5800 4788.0000 1.0000
87.6000 4638.0000 1.0000
87.6200 4663.0000 1.0000
87.6400 4886.0000 1.0000
87.6600 4885.0000 1.0000
87.6800 4960.0000 1.0000
87.7000 5054.0000 1.0000
87.7200 4858.0000 1.0000
87.7400 4893.0000 1.0000
87.7600 4690.0000 1.0000
87.7800 4814.0000 1.0000
87.8000 4584.0000 1.0000
87.8200 4786.0000 1.0000
87.8400 4720.0000 1.0000
87.8600 4774.0000 1.0000
87.8800 4721.0000 1.0000
87.9000 4772.0000 1.0000
87.9200 4697.0000 1.0000
87.9400 4664.0000 1.0000
87.9600 4756.0000 1.0000
87.9800 4811.0000 1.0000
88.0000 4681.0000 1.0000
88.0200 4798.0000 1.0000
88.0400 4797.0000 1.0000
88.0600 4666.0000 1.0000
88.0800 4666.0000 1.0000
88.1000 4603.0000 1.0000
88.1200 4720.0000 1.0000
88.1400 4681.0000 1.0000
88.1600 4721.0000 1.0000
88.1800 4754.0000 1.0000
88.2000 4681.0000 1.0000
88.2200 4706.0000 1.0000
88.2400 4665.0000 1.0000
88.2600 4822.0000 1.0000
88.2800 4802.0000 1.0000
88.3000 4771.0000 1.0000
88.3200 4905.0000 1.0000
88.3400 4865.0000 1.0000
88.3600 4801.0000 1.0000
88.3800 4798.0000 1.0000
88.4000 4873.0000 1.0000
88.4200 4776.0000 1.0000
88.4400 4846.0000 1.0000
88.4600 4943.0000 1.0000
88.4800 5109.0000 1.0000
88.5000 5065.0000 1.0000
88.5200 5115.0000 1.0000
88.5400 5031.0000 1.0000
88.5600 5103.0000 1.0000
88.5800 5005.0000 1.0000
88.6000 4957.0000 1.0000
88.6200 4872.0000 1.0000
88.6400 4897.0000 1.0000
88.6600 4954.0000 1.0000
88.6800 4979.0000 1.0000
88.7000 5007.0000 1.0000
88.7200 5002.0000 1.0000
88.7400 4962.0000 1.0000
88.7600 5018.0000 1.0000
88.7800 5059.0000 1.0000
88.8000 5101.0000 1.0000
88.8200 5179.0000 1.0000
88.8400 5257.0000 1.0000
88.8600 5077.0000 1.0000
88.8800 5133.0000 1.0000
88.9000 5218.0000 1.0000
88.9200 5389.0000 1.0000
88.9400 5474.0000 1.0000
88.9600 5558.0000 1.0000
88.9800 5311.0000 1.0000
89.0000 5288.0000 1.0000
89.0200 5187.0000 1.0000
89.0400 5201.0000 1.0000
89.0600 5075.0000 1.0000
89.0800 5011.0000 1.0000
89.1000 5059.0000 1.0000
89.1200 5040.0000 1.0000
89.1400 4900.0000 1.0000
89.1600 5028.0000 1.0000
89.1800 4986.0000 1.0000
89.2000 5059.0000 1.0000
89.2200 5168.0000 1.0000
89.2400 5243.0000 1.0000
89.2600 5156.0000 1.0000
89.2800 5103.0000 1.0000
89.3000 4845.0000 1.0000
89.3200 4986.0000 1.0000
89.3400 5030.0000 1.0000
89.3600 4907.0000 1.0000
89.3800 4885.0000 1.0000
89.4000 4759.0000 1.0000
89.4200 4792.0000 1.0000
89.4400 4768.0000 1.0000
89.4600 4854.0000 1.0000
89.4800 4829.0000 1.0000
89.5000 4921.0000 1.0000
89.5200 4910.0000 1.0000
89.5400 4895.0000 1.0000
89.5600 4884.0000 1.0000
89.5800 4954.0000 1.0000
89.6000 4934.0000 1.0000
89.6200 4894.0000 1.0000
89.6400 5100.0000 1.0000
89.6600 5121.0000 1.0000
89.6800 5147.0000 1.0000
89.7000 5148.0000 1.0000
89.7200 5213.0000 1.0000
89.7400 5334.0000 1.0000
89.7600 5296.0000 1.0000
89.7800 5282.0000 1.0000
89.8000 5220.0000 1.0000
89.8200 5154.0000 1.0000
89.8400 5134.0000 1.0000
89.8600 5199.0000 1.0000
89.8800 5057.0000 1.0000
89.9000 5120.0000 1.0000
89.9200 5135.0000 1.0000
89.9400 5240.0000 1.0000
89.9600 5122.0000 1.0000
89.9800 5109.0000 1.0000
90.0000 5128.0000 1.0000
*RAS_INT_END
*RAS_TEMPERATURE_START
*RAS_TEMPERATURE_END
*RAS_DATA_END
